timestamp,TP9,AF7,AF8,TP10,AUX,Marker,
75.00390625,-28.3203125,-46.38671875,-35.64453125,2.44140625,-43.45703125,0.0
75.0078125,-26.3671875,-43.45703125,-44.921875,20.99609375,-130.859375,0.0
75.01171875,-13.671875,-45.8984375,-49.8046875,20.99609375,-109.86328125,0.0
75.015625,15.625,-34.66796875,-35.64453125,-12.6953125,-69.82421875,0.0
75.01953125,28.80859375,-29.78515625,-19.53125,-8.7890625,-94.7265625,0.0
75.0234375,-0.9765625,-33.69140625,-11.71875,0.0,-61.03515625,0.0
75.02734375,-40.0390625,-38.57421875,-25.390625,-15.13671875,-21.97265625,0.0
75.03125,-55.6640625,-37.109375,-44.43359375,-30.2734375,-20.5078125,0.0
75.03515625,-55.6640625,-45.8984375,-43.9453125,-38.0859375,-19.53125,0.0
75.0390625,-20.01953125,-53.22265625,-29.78515625,-35.15625,-42.48046875,0.0
75.04296875,9.27734375,-36.62109375,-19.04296875,-10.7421875,-61.03515625,0.0
75.046875,-20.5078125,-29.78515625,-38.0859375,12.20703125,-138.18359375,0.0
75.05078125,-46.38671875,-32.71484375,-43.45703125,12.20703125,-151.85546875,0.0
75.0546875,-35.15625,-29.296875,-27.34375,5.37109375,-58.10546875,0.0
75.05859375,-21.97265625,-27.34375,-24.90234375,-2.9296875,10.7421875,0.0
75.0625,-15.625,-25.87890625,-18.06640625,8.30078125,19.04296875,0.0
75.06640625,-15.625,-32.2265625,-21.484375,-13.671875,0.9765625,0.0
75.0703125,-32.2265625,-38.0859375,-32.71484375,-53.22265625,6.34765625,0.0
75.07421875,-28.3203125,-33.69140625,-34.1796875,-76.171875,-8.30078125,0.0
75.078125,-10.7421875,-33.203125,-42.48046875,-91.30859375,-32.2265625,0.0
75.08203125,10.25390625,-32.2265625,-36.62109375,-75.68359375,-49.8046875,0.0
75.0859375,-3.90625,-45.41015625,-29.78515625,-84.9609375,-24.4140625,0.0
75.08984375,-29.296875,-47.8515625,-36.62109375,-101.07421875,47.8515625,0.0
75.09375,-11.23046875,-37.109375,-32.2265625,-111.81640625,12.6953125,0.0
75.09765625,30.2734375,-31.73828125,-31.25,-116.2109375,-27.34375,0.0
75.1015625,24.4140625,-26.3671875,-39.0625,-78.125,-84.9609375,0.0
75.10546875,-18.5546875,-34.66796875,-31.25,-36.1328125,-143.06640625,0.0
75.109375,-15.13671875,-39.0625,-26.3671875,-24.90234375,-135.25390625,0.0
75.11328125,-9.27734375,-29.78515625,-27.34375,-26.3671875,-108.3984375,0.0
75.1171875,-20.01953125,-24.4140625,-34.1796875,-32.2265625,-95.21484375,0.0
75.12109375,-15.13671875,-21.97265625,-37.109375,-24.90234375,-66.89453125,0.0
75.125,-15.625,-26.85546875,-33.69140625,-27.34375,-3.90625,0.0
75.12890625,-16.6015625,-35.64453125,-29.296875,-29.296875,-11.71875,0.0
75.1328125,-5.859375,-33.69140625,-28.80859375,-47.8515625,-9.27734375,0.0
75.13671875,-10.25390625,-20.01953125,-33.69140625,-85.44921875,-28.3203125,0.0
75.140625,-22.4609375,-19.04296875,-28.80859375,-103.515625,-1.46484375,0.0
75.14453125,-17.578125,-34.1796875,-33.69140625,-116.69921875,24.90234375,0.0
75.1484375,-11.23046875,-35.64453125,-37.59765625,-103.02734375,-68.84765625,0.0
75.15234375,-27.83203125,-26.3671875,-20.5078125,-77.1484375,-66.89453125,0.0
75.15625,-34.1796875,-22.4609375,-24.4140625,-52.734375,-51.7578125,0.0
75.16015625,-27.34375,-27.34375,-37.59765625,-49.8046875,-81.54296875,0.0
75.1640625,-20.01953125,-36.1328125,-34.66796875,-42.96875,-89.84375,0.0
75.16796875,-15.625,-38.0859375,-40.0390625,-35.64453125,-63.4765625,0.0
75.171875,-12.20703125,-35.15625,-41.015625,-71.2890625,-62.01171875,0.0
75.17578125,4.39453125,-38.0859375,-49.31640625,-90.8203125,-103.515625,0.0
75.1796875,34.1796875,-34.66796875,-42.96875,-81.54296875,-71.2890625,0.0
75.18359375,13.18359375,-28.80859375,-26.3671875,-73.2421875,19.53125,0.0
75.1875,-31.73828125,-25.87890625,-23.92578125,-27.34375,51.26953125,0.0
75.19140625,-35.15625,-21.484375,-21.484375,14.6484375,61.5234375,0.0
75.1953125,-21.484375,-25.87890625,-29.296875,1.46484375,66.89453125,0.0
75.19921875,-25.390625,-35.64453125,-36.1328125,-11.23046875,-30.76171875,0.0
75.203125,-24.4140625,-40.52734375,-33.69140625,-10.25390625,-62.5,0.0
75.20703125,-3.90625,-39.55078125,-33.203125,-1.953125,-53.7109375,0.0
75.2109375,-10.7421875,-29.78515625,-20.99609375,-7.8125,-87.40234375,0.0
75.21484375,-18.5546875,-16.6015625,-9.27734375,-39.0625,-79.1015625,0.0
75.21875,-25.390625,-41.50390625,-25.390625,-61.5234375,-43.9453125,0.0
75.22265625,-39.55078125,-52.24609375,-29.78515625,-49.31640625,1.953125,0.0
75.2265625,-20.99609375,-36.1328125,-18.5546875,-31.25,5.37109375,0.0
75.23046875,-14.6484375,-34.1796875,-21.484375,-10.7421875,-29.296875,0.0
75.234375,-26.85546875,-28.3203125,-23.4375,33.203125,-4.39453125,0.0
75.23828125,-26.3671875,-20.01953125,-28.3203125,48.828125,74.21875,0.0
75.2421875,-12.6953125,-21.484375,-35.64453125,51.7578125,60.546875,0.0
75.24609375,2.44140625,-29.296875,-40.52734375,67.87109375,9.765625,0.0
75.25,4.39453125,-31.25,-39.0625,59.5703125,-16.11328125,0.0
75.25390625,20.01953125,-20.01953125,-25.87890625,41.015625,10.25390625,0.0
75.2578125,14.16015625,-25.87890625,-19.53125,29.296875,55.6640625,0.0
75.26171875,-22.94921875,-40.52734375,-18.5546875,17.578125,52.24609375,0.0
75.265625,-22.4609375,-41.50390625,-31.73828125,-3.41796875,-22.94921875,0.0
75.26953125,-13.18359375,-41.50390625,-36.1328125,-8.30078125,-40.0390625,0.0
75.2734375,-3.41796875,-35.64453125,-23.4375,-6.8359375,52.24609375,0.0
75.27734375,-11.23046875,-31.25,-22.4609375,-23.4375,18.5546875,0.0
75.28125,-57.6171875,-50.78125,-35.64453125,-29.296875,-117.1875,0.0
75.28515625,-50.29296875,-49.8046875,-46.875,-7.32421875,-132.32421875,0.0
75.2890625,-29.296875,-40.0390625,-53.7109375,11.23046875,-52.24609375,0.0
75.29296875,-0.9765625,-37.109375,-31.73828125,30.76171875,-57.6171875,0.0
75.296875,-7.32421875,-35.64453125,-11.23046875,35.64453125,-48.828125,0.0
75.30078125,-23.4375,-41.50390625,-17.578125,24.90234375,-33.203125,0.0
75.3046875,-44.43359375,-45.8984375,-20.01953125,16.11328125,-88.37890625,0.0
75.30859375,-70.3125,-43.9453125,-24.4140625,20.5078125,-126.46484375,0.0
75.3125,-48.828125,-35.64453125,-27.83203125,32.2265625,-214.35546875,0.0
75.31640625,-31.73828125,-25.87890625,-29.78515625,54.19921875,-228.02734375,0.0
75.3203125,5.37109375,-27.34375,-13.671875,75.68359375,-99.12109375,0.0
75.32421875,7.8125,-41.50390625,-31.25,51.26953125,-48.33984375,0.0
75.328125,-38.57421875,-46.38671875,-55.17578125,28.3203125,-54.19921875,0.0
75.33203125,-22.4609375,-36.1328125,-39.55078125,40.52734375,-17.578125,0.0
75.3359375,-21.484375,-36.1328125,-32.2265625,60.05859375,7.8125,0.0
75.33984375,-16.6015625,-37.109375,-32.71484375,56.15234375,-4.8828125,0.0
75.34375,13.18359375,-35.15625,-41.9921875,34.1796875,-15.625,0.0
75.34765625,-11.71875,-51.26953125,-27.83203125,49.31640625,-65.91796875,0.0
75.3515625,-52.734375,-44.921875,-17.578125,65.91796875,-75.68359375,0.0
75.35546875,-50.78125,-27.34375,-23.92578125,39.55078125,7.8125,0.0
75.359375,-40.0390625,-21.97265625,-40.0390625,29.78515625,-0.48828125,0.0
75.36328125,-37.109375,-18.06640625,-45.8984375,40.0390625,10.25390625,0.0
75.3671875,-43.45703125,-33.203125,-42.96875,54.19921875,-25.87890625,0.0
75.37109375,-41.015625,-44.43359375,-42.96875,57.6171875,-62.98828125,0.0
75.375,-25.87890625,-39.0625,-34.1796875,24.90234375,-26.85546875,0.0
75.37890625,-29.296875,-36.1328125,-34.66796875,11.71875,-68.84765625,0.0
75.3828125,-30.2734375,-34.1796875,-38.57421875,15.625,-103.515625,0.0
75.38671875,-26.3671875,-33.203125,-34.66796875,10.25390625,-117.1875,0.0
75.390625,-33.203125,-38.57421875,-30.2734375,-2.9296875,-83.984375,0.0
75.39453125,-20.99609375,-35.64453125,-26.3671875,-29.296875,-42.96875,0.0
75.3984375,5.859375,-31.73828125,-32.2265625,-46.875,-77.1484375,0.0
75.40234375,-25.390625,-38.57421875,-32.71484375,-47.36328125,-67.87109375,0.0
75.40625,-63.96484375,-37.59765625,-37.59765625,-47.8515625,-18.06640625,0.0
75.41015625,-81.0546875,-42.48046875,-41.9921875,-62.01171875,-5.859375,0.0
75.4140625,-71.2890625,-39.55078125,-34.66796875,-41.015625,-6.34765625,0.0
75.41796875,-47.8515625,-37.109375,-38.57421875,-24.4140625,45.8984375,0.0
75.421875,-57.12890625,-45.8984375,-33.203125,-41.9921875,47.8515625,0.0
75.42578125,-61.03515625,-41.9921875,-26.85546875,-41.9921875,25.87890625,0.0
75.4296875,-55.6640625,-39.0625,-28.80859375,-47.8515625,26.3671875,0.0
75.43359375,-48.828125,-37.109375,-27.34375,-56.640625,52.24609375,0.0
75.4375,5.37109375,-27.83203125,-34.66796875,-31.25,20.5078125,0.0
75.44140625,23.4375,-23.4375,-39.55078125,-2.9296875,-78.61328125,0.0
75.4453125,-63.96484375,-27.34375,-35.15625,-8.30078125,-87.40234375,0.0
75.44921875,-103.02734375,-31.73828125,-33.203125,-11.71875,-144.53125,0.0
75.453125,-75.1953125,-25.87890625,-24.4140625,0.9765625,-122.55859375,0.0
75.45703125,-71.77734375,-29.296875,-35.15625,-10.25390625,-71.77734375,0.0
75.4609375,-73.73046875,-42.48046875,-47.8515625,-32.71484375,-95.21484375,0.0
75.46484375,-64.453125,-34.1796875,-35.64453125,-55.6640625,21.484375,0.0
75.46875,-38.57421875,-32.2265625,-30.2734375,-57.6171875,-8.30078125,0.0
75.47265625,-18.06640625,-32.71484375,-27.34375,-25.390625,-121.09375,0.0
75.4765625,-28.80859375,-25.87890625,-29.78515625,-17.578125,-117.1875,0.0
75.48046875,-52.24609375,-30.2734375,-40.0390625,-40.0390625,17.08984375,0.0
75.484375,-39.0625,-24.4140625,-38.57421875,-51.26953125,95.703125,0.0
75.48828125,-27.34375,-25.390625,-33.203125,-66.89453125,40.0390625,0.0
75.4921875,-47.8515625,-38.57421875,-33.69140625,-60.546875,-6.34765625,0.0
75.49609375,-44.921875,-29.78515625,-34.1796875,-41.015625,-31.25,0.0
75.5,-37.109375,-29.78515625,-41.50390625,-80.56640625,-50.78125,0.0
75.50390625,-33.69140625,-39.55078125,-42.48046875,-106.4453125,-43.9453125,0.0
75.5078125,-30.2734375,-40.0390625,-42.48046875,-33.69140625,-19.04296875,0.0
75.51171875,-16.6015625,-40.0390625,-44.43359375,41.015625,-58.59375,0.0
75.515625,-24.90234375,-35.15625,-27.83203125,59.08203125,18.5546875,0.0
75.51953125,-56.15234375,-38.0859375,-31.25,43.45703125,101.07421875,0.0
75.5234375,-57.12890625,-44.921875,-31.73828125,42.96875,-47.36328125,0.0
75.52734375,-68.84765625,-51.26953125,-20.99609375,49.31640625,-100.09765625,0.0
75.53125,-117.67578125,-75.68359375,-30.76171875,23.4375,-99.12109375,0.0
75.53515625,-149.90234375,-83.0078125,-20.99609375,-4.8828125,-91.30859375,0.0
75.5390625,-174.31640625,-84.9609375,-12.6953125,-46.38671875,-39.0625,0.0
75.54296875,-208.0078125,-104.98046875,-18.06640625,-95.21484375,-1.46484375,0.0
75.546875,-217.28515625,-120.60546875,-26.3671875,-132.32421875,-11.71875,0.0
75.55078125,-200.1953125,-126.46484375,-16.6015625,-113.76953125,-6.8359375,0.0
75.5546875,-204.58984375,-130.37109375,2.9296875,-132.32421875,57.6171875,0.0
75.55859375,-200.1953125,-141.11328125,-9.27734375,-183.10546875,41.9921875,0.0
75.5625,-188.4765625,-142.578125,-15.13671875,-155.2734375,-29.78515625,0.0
75.56640625,-185.546875,-140.625,-0.48828125,-152.34375,-60.05859375,0.0
75.5703125,-168.9453125,-140.625,11.23046875,-160.15625,-46.38671875,0.0
75.57421875,-168.9453125,-139.16015625,11.71875,-187.5,-15.625,0.0
75.578125,-136.71875,-129.8828125,7.8125,-258.30078125,-4.8828125,0.0
75.58203125,-103.02734375,-122.0703125,9.27734375,-281.25,-54.19921875,0.0
75.5859375,-108.3984375,-123.53515625,12.20703125,-311.5234375,-16.6015625,0.0
75.58984375,-74.70703125,-117.1875,9.765625,-330.078125,10.7421875,0.0
75.59375,-44.921875,-110.3515625,13.18359375,-332.51953125,-28.3203125,0.0
75.59765625,-21.97265625,-100.5859375,15.13671875,-328.125,-5.859375,0.0
75.6015625,29.78515625,-81.0546875,19.53125,-347.16796875,-20.5078125,0.0
75.60546875,22.4609375,-77.1484375,-1.46484375,-448.73046875,9.765625,0.0
75.609375,-1.46484375,-85.9375,-24.4140625,-491.2109375,3.41796875,0.0
75.61328125,38.0859375,-75.68359375,-4.39453125,-377.44140625,-75.1953125,0.0
75.6171875,69.3359375,-56.15234375,-2.9296875,-338.37890625,-22.94921875,0.0
75.62109375,78.61328125,-47.36328125,-11.23046875,-369.140625,-54.19921875,0.0
75.625,53.7109375,-47.8515625,-16.11328125,-370.60546875,-57.12890625,0.0
75.62890625,37.109375,-47.36328125,-20.01953125,-363.76953125,-2.9296875,0.0
75.6328125,42.48046875,-48.828125,-20.01953125,-369.140625,-62.98828125,0.0
75.63671875,35.15625,-45.8984375,-30.76171875,-404.78515625,-112.79296875,0.0
75.640625,29.78515625,-43.45703125,-35.64453125,-412.59765625,-72.75390625,0.0
75.64453125,33.203125,-41.9921875,-34.66796875,-437.01171875,-14.16015625,0.0
75.6484375,36.62109375,-43.45703125,-34.1796875,-473.6328125,-86.42578125,0.0
75.65234375,30.2734375,-34.66796875,-34.1796875,-467.28515625,-129.39453125,0.0
75.65625,24.90234375,-21.484375,-36.1328125,-495.1171875,-93.75,0.0
75.66015625,11.71875,-23.4375,-32.2265625,-531.73828125,-149.4140625,0.0
75.6640625,-15.625,-31.25,-31.25,-516.11328125,-137.6953125,0.0
75.66796875,-36.62109375,-35.15625,-39.55078125,-499.51171875,-38.57421875,0.0
75.671875,-20.01953125,-28.3203125,-44.43359375,-483.3984375,-51.7578125,0.0
75.67578125,4.39453125,-20.99609375,-33.203125,-441.40625,-54.6875,0.0
75.6796875,-14.6484375,-25.87890625,-34.66796875,-408.69140625,11.71875,0.0
75.68359375,-31.73828125,-23.4375,-45.41015625,-397.4609375,-4.8828125,0.0
75.6875,-33.69140625,-25.87890625,-44.43359375,-393.06640625,26.85546875,0.0
75.69140625,-32.71484375,-25.87890625,-40.52734375,-379.8828125,45.8984375,0.0
75.6953125,-46.875,-24.90234375,-39.0625,-354.00390625,-16.11328125,0.0
75.69921875,-55.17578125,-27.34375,-38.57421875,-335.44921875,-37.109375,0.0
75.703125,-47.8515625,-27.83203125,-39.0625,-333.49609375,-58.59375,0.0
75.70703125,-53.22265625,-31.73828125,-32.71484375,-305.17578125,-31.25,0.0
75.7109375,-50.78125,-30.76171875,-22.4609375,-254.8828125,-30.2734375,0.0
75.71484375,-51.7578125,-25.87890625,-28.80859375,-236.328125,-33.69140625,0.0
75.71875,-53.22265625,-24.4140625,-41.9921875,-240.72265625,33.69140625,0.0
75.72265625,-45.41015625,-26.3671875,-37.109375,-266.11328125,103.515625,0.0
75.7265625,-54.6875,-31.73828125,-29.296875,-311.5234375,32.71484375,0.0
75.73046875,-53.7109375,-35.64453125,-31.25,-344.23828125,-118.1640625,0.0
75.734375,-39.0625,-22.4609375,-26.85546875,-346.6796875,-83.0078125,0.0
75.73828125,-46.38671875,-21.484375,-33.203125,-321.77734375,68.84765625,0.0
75.7421875,-54.19921875,-40.52734375,-53.22265625,-327.63671875,-14.6484375,0.0
75.74609375,-65.91796875,-46.875,-58.10546875,-332.03125,-136.71875,0.0
75.75,-68.84765625,-35.64453125,-57.12890625,-285.64453125,-48.33984375,0.0
75.75390625,-56.15234375,-24.4140625,-49.31640625,-256.34765625,12.20703125,0.0
75.7578125,-48.33984375,-20.99609375,-39.55078125,-249.0234375,-22.94921875,0.0
75.76171875,-44.921875,-14.6484375,-41.9921875,-251.953125,-28.3203125,0.0
75.765625,-53.7109375,-16.11328125,-45.8984375,-253.90625,22.94921875,0.0
75.76953125,-66.40625,-23.92578125,-48.828125,-239.2578125,6.34765625,0.0
75.7734375,-61.5234375,-21.97265625,-40.52734375,-223.6328125,-3.90625,0.0
75.77734375,-58.10546875,-21.484375,-39.55078125,-211.42578125,18.5546875,0.0
75.78125,-72.75390625,-25.390625,-42.48046875,-194.82421875,-9.765625,0.0
75.78515625,-57.6171875,-27.34375,-46.38671875,-185.546875,-23.4375,0.0
75.7890625,-34.1796875,-28.3203125,-47.36328125,-164.0625,-30.76171875,0.0
75.79296875,-47.8515625,-29.78515625,-36.62109375,-162.59765625,-33.203125,0.0
75.796875,-64.94140625,-33.203125,-22.4609375,-189.94140625,-75.1953125,0.0
75.80078125,-75.68359375,-41.015625,-29.296875,-211.42578125,-110.3515625,0.0
75.8046875,-85.9375,-58.10546875,-39.0625,-210.44921875,-59.08203125,0.0
75.80859375,-104.4921875,-65.4296875,-32.2265625,-231.4453125,-93.75,0.0
75.8125,-89.84375,-64.453125,-22.94921875,-270.01953125,-85.9375,0.0
75.81640625,-77.1484375,-68.84765625,-15.13671875,-270.01953125,-24.4140625,0.0
75.8203125,-103.515625,-75.1953125,-16.6015625,-295.8984375,-78.125,0.0
75.82421875,-98.6328125,-82.03125,-24.4140625,-305.17578125,-95.21484375,0.0
75.828125,-98.6328125,-82.51953125,-31.25,-287.109375,-51.26953125,0.0
75.83203125,-112.3046875,-87.890625,-25.390625,-277.83203125,-90.33203125,0.0
75.8359375,-109.375,-96.6796875,-22.4609375,-251.46484375,-75.68359375,0.0
75.83984375,-89.84375,-86.9140625,-28.3203125,-237.3046875,2.44140625,0.0
75.84375,-94.23828125,-84.9609375,-24.4140625,-232.421875,-4.8828125,0.0
75.84765625,-88.8671875,-80.56640625,-10.25390625,-202.63671875,-11.23046875,0.0
75.8515625,-85.9375,-66.89453125,-6.8359375,-153.3203125,-38.57421875,0.0
75.85546875,-93.75,-58.59375,-18.06640625,-124.0234375,-5.859375,0.0
75.859375,-95.21484375,-63.4765625,-31.73828125,-150.390625,7.8125,0.0
75.86328125,-102.05078125,-67.87109375,-34.66796875,-150.87890625,-29.78515625,0.0
75.8671875,-98.14453125,-58.59375,-29.296875,-128.90625,-45.41015625,0.0
75.87109375,-94.7265625,-57.6171875,-27.83203125,-59.08203125,-72.265625,0.0
75.875,-95.21484375,-63.4765625,-41.9921875,29.78515625,-20.01953125,0.0
75.87890625,-97.65625,-53.7109375,-44.43359375,107.421875,-28.80859375,0.0
75.8828125,-91.796875,-48.828125,-30.2734375,166.9921875,-86.42578125,0.0
75.88671875,-101.5625,-49.8046875,-30.76171875,178.7109375,-13.671875,0.0
75.890625,-106.4453125,-41.50390625,-32.71484375,202.63671875,2.9296875,0.0
75.89453125,-90.33203125,-35.15625,-32.2265625,233.3984375,-19.04296875,0.0
75.8984375,-83.49609375,-38.0859375,-40.0390625,237.3046875,-52.24609375,0.0
75.90234375,-92.28515625,-35.64453125,-48.33984375,222.65625,-40.52734375,0.0
75.90625,-79.1015625,-39.55078125,-43.45703125,234.86328125,-16.11328125,0.0
75.91015625,-71.2890625,-40.52734375,-34.1796875,235.83984375,-66.89453125,0.0
75.9140625,-94.7265625,-35.15625,-32.2265625,209.9609375,-54.6875,0.0
75.91796875,-109.86328125,-28.3203125,-36.62109375,207.03125,-33.69140625,0.0
75.921875,-81.54296875,-24.4140625,-33.203125,197.75390625,-64.94140625,0.0
75.92578125,-83.0078125,-37.109375,-35.64453125,147.4609375,-65.4296875,0.0
75.9296875,-89.35546875,-38.57421875,-30.76171875,158.203125,-57.12890625,0.0
75.93359375,-71.77734375,-28.80859375,-26.85546875,223.6328125,-69.82421875,0.0
75.9375,-80.56640625,-28.80859375,-40.52734375,227.5390625,10.25390625,0.0
75.94140625,-98.6328125,-40.52734375,-47.36328125,213.37890625,86.42578125,0.0
75.9453125,-98.6328125,-36.62109375,-42.96875,195.3125,-4.39453125,0.0
75.94921875,-86.42578125,-36.62109375,-34.66796875,156.25,-152.34375,0.0
75.953125,-74.21875,-36.62109375,-32.71484375,157.2265625,-62.98828125,0.0
75.95703125,-72.75390625,-20.99609375,-28.80859375,192.3828125,61.03515625,0.0
75.9609375,-92.28515625,-20.5078125,-31.73828125,194.82421875,72.75390625,0.0
75.96484375,-85.9375,-27.83203125,-39.0625,150.390625,79.1015625,0.0
75.96875,-75.68359375,-30.76171875,-35.15625,141.6015625,45.41015625,0.0
75.97265625,-79.58984375,-28.80859375,-25.390625,162.59765625,52.734375,0.0
75.9765625,-89.84375,-29.78515625,-31.73828125,148.4375,60.05859375,0.0
75.98046875,-72.265625,-24.4140625,-37.59765625,82.51953125,7.32421875,0.0
75.984375,-49.8046875,-20.99609375,-39.0625,34.1796875,-56.15234375,0.0
75.98828125,-69.3359375,-27.34375,-40.52734375,21.484375,-125.9765625,0.0
75.9921875,-72.265625,-25.87890625,-28.80859375,23.4375,-106.93359375,0.0
75.99609375,-56.15234375,-14.16015625,-22.94921875,8.7890625,-5.37109375,0.0
76.0,-57.12890625,-20.01953125,-36.1328125,-34.1796875,-28.80859375,0.0
76.00390625,-52.24609375,-24.90234375,-36.62109375,-26.85546875,-96.6796875,0.0
76.0078125,-46.875,-22.4609375,-27.83203125,-3.90625,-71.2890625,0.0
76.01171875,-54.6875,-30.76171875,-41.9921875,-41.015625,19.04296875,0.0
76.015625,-47.8515625,-25.87890625,-60.05859375,-91.796875,52.24609375,0.0
76.01953125,-30.2734375,-17.578125,-48.828125,-70.3125,-0.48828125,0.0
76.0234375,-41.50390625,-22.94921875,-39.55078125,-75.68359375,-50.78125,0.0
76.02734375,-49.8046875,-27.34375,-39.0625,-251.46484375,-38.57421875,0.0
76.03125,-43.45703125,-28.80859375,-29.78515625,-514.16015625,-40.0390625,0.0
76.03515625,-20.99609375,-25.87890625,-24.90234375,-606.93359375,-6.34765625,0.0
76.0390625,-4.39453125,-28.3203125,-28.80859375,-592.7734375,34.1796875,0.0
76.04296875,9.765625,-28.80859375,-28.80859375,-602.05078125,58.10546875,0.0
76.046875,-0.48828125,-27.34375,-24.90234375,-603.02734375,23.92578125,0.0
76.05078125,-29.78515625,-26.85546875,-28.3203125,-598.6328125,-106.93359375,0.0
76.0546875,-10.25390625,-25.87890625,-27.83203125,-555.6640625,-141.6015625,0.0
76.05859375,-24.90234375,-32.71484375,-39.55078125,-529.78515625,-202.63671875,0.0
76.0625,-71.77734375,-31.73828125,-40.52734375,-505.859375,-247.0703125,0.0
76.06640625,-57.12890625,-28.80859375,-32.2265625,-489.2578125,-123.046875,0.0
76.0703125,-52.24609375,-39.0625,-30.76171875,-509.27734375,-44.921875,0.0
76.07421875,-65.4296875,-35.15625,-25.87890625,-478.515625,-13.671875,0.0
76.078125,-43.45703125,-29.296875,-26.3671875,-429.19921875,-19.04296875,0.0
76.08203125,-43.9453125,-33.69140625,-26.85546875,-384.765625,-62.5,0.0
76.0859375,-66.40625,-35.15625,-24.90234375,-378.41796875,-88.8671875,0.0
76.08984375,-63.96484375,-31.73828125,-22.4609375,-369.62890625,-71.77734375,0.0
76.09375,-69.3359375,-27.83203125,-20.5078125,-387.20703125,-27.34375,0.0
76.09765625,-66.89453125,-23.92578125,-24.4140625,-411.1328125,-12.20703125,0.0
76.1015625,-75.68359375,-25.390625,-31.73828125,-396.484375,-64.453125,0.0
76.10546875,-74.70703125,-28.3203125,-32.71484375,-381.34765625,-67.3828125,0.0
76.109375,-65.91796875,-30.2734375,-32.71484375,-353.515625,-107.421875,0.0
76.11328125,-63.96484375,-24.4140625,-32.2265625,-348.14453125,-89.35546875,0.0
76.1171875,-71.2890625,-27.83203125,-49.8046875,-408.203125,-107.421875,0.0
76.12109375,-106.93359375,-31.73828125,-58.10546875,-437.01171875,-120.60546875,0.0
76.125,-63.96484375,-24.4140625,-43.9453125,-407.71484375,-8.7890625,0.0
76.12890625,-36.62109375,-28.3203125,-45.8984375,-439.453125,34.66796875,0.0
76.1328125,-71.77734375,-29.78515625,-46.875,-478.515625,69.3359375,0.0
76.13671875,-118.65234375,-29.296875,-42.96875,-520.99609375,39.55078125,0.0
76.140625,-121.58203125,-33.69140625,-46.38671875,-635.25390625,42.96875,0.0
76.14453125,-85.44921875,-26.3671875,-49.31640625,-676.26953125,67.3828125,0.0
76.1484375,-66.89453125,-19.04296875,-47.36328125,-658.203125,-16.11328125,0.0
76.15234375,-108.3984375,-27.83203125,-38.0859375,-660.64453125,-4.39453125,0.0
76.15625,-138.671875,-25.87890625,-35.64453125,-651.85546875,-10.7421875,0.0
76.16015625,-144.04296875,-20.99609375,-36.1328125,-570.3125,-39.55078125,0.0
76.1640625,-121.58203125,-28.3203125,-41.9921875,-501.46484375,40.52734375,0.0
76.16796875,-181.15234375,-29.296875,-42.96875,-505.859375,25.87890625,0.0
76.171875,-105.95703125,-18.5546875,-37.59765625,-436.5234375,-41.9921875,0.0
76.17578125,-70.3125,-12.6953125,-41.9921875,-350.09765625,-65.91796875,0.0
76.1796875,-146.484375,-20.01953125,-45.41015625,-334.47265625,-97.16796875,0.0
76.18359375,-90.8203125,-18.5546875,-41.50390625,-287.109375,-7.32421875,0.0
76.1875,-96.6796875,-12.20703125,-39.55078125,-244.140625,66.40625,0.0
76.19140625,-124.51171875,-27.34375,-39.55078125,-240.72265625,-8.7890625,0.0
76.1953125,-129.8828125,-31.25,-33.69140625,-217.7734375,-67.3828125,0.0
76.19921875,-83.49609375,-16.11328125,-36.62109375,-112.3046875,-17.578125,0.0
76.203125,-99.609375,-16.6015625,-41.9921875,-42.48046875,71.77734375,0.0
76.20703125,-152.34375,-25.390625,-50.29296875,-32.2265625,32.2265625,0.0
76.2109375,-168.45703125,-35.64453125,-41.015625,-1.46484375,-41.50390625,0.0
76.21484375,-85.9375,-23.92578125,-29.78515625,29.296875,-27.83203125,0.0
76.21875,-8.7890625,-13.18359375,-48.828125,6.8359375,-33.203125,0.0
76.22265625,-111.328125,-23.4375,-50.78125,-29.296875,-66.40625,0.0
76.2265625,-127.9296875,-20.99609375,-40.0390625,-19.53125,-50.29296875,0.0
76.23046875,-106.93359375,-24.90234375,-33.203125,41.50390625,-29.78515625,0.0
76.234375,-108.88671875,-27.34375,-39.0625,101.5625,17.578125,0.0
76.23828125,-57.6171875,-21.97265625,-45.41015625,72.75390625,53.7109375,0.0
76.2421875,-128.90625,-38.57421875,-42.48046875,36.1328125,-13.18359375,0.0
76.24609375,-94.7265625,-19.53125,-39.0625,129.8828125,-46.875,0.0
76.25,-82.51953125,-21.97265625,-36.62109375,158.203125,-65.4296875,0.0
76.25390625,-251.953125,-58.59375,-41.50390625,2.44140625,-109.86328125,0.0
76.2578125,-184.08203125,-59.5703125,-51.7578125,-46.38671875,-105.46875,0.0
76.26171875,-132.8125,-59.08203125,-38.0859375,16.6015625,-88.37890625,0.0
76.265625,-275.87890625,-59.5703125,-33.203125,-43.9453125,-20.5078125,0.0
76.26953125,-229.4921875,-70.3125,-45.8984375,-90.33203125,4.39453125,0.0
76.2734375,-249.51171875,-85.44921875,-48.828125,-133.7890625,24.90234375,0.0
76.27734375,-376.953125,-105.46875,-62.5,-186.5234375,67.87109375,0.0
76.28125,-350.09765625,-91.796875,-62.5,-212.890625,1.953125,0.0
76.28515625,-347.65625,-83.0078125,-60.05859375,-252.9296875,-41.015625,0.0
76.2890625,-378.90625,-111.328125,-60.05859375,-261.23046875,-9.765625,0.0
76.29296875,-366.69921875,-92.7734375,-49.31640625,-310.546875,-57.6171875,0.0
76.296875,-362.79296875,-85.44921875,-46.38671875,-305.17578125,-22.4609375,0.0
76.30078125,-374.51171875,-97.65625,-49.8046875,-162.109375,-11.71875,0.0
76.3046875,-384.27734375,-95.703125,-40.52734375,-117.67578125,-48.828125,0.0
76.30859375,-340.8203125,-69.3359375,-38.0859375,-107.421875,-19.04296875,0.0
76.3125,-298.828125,-59.08203125,-49.8046875,-106.93359375,-12.20703125,0.0
76.31640625,-308.59375,-69.3359375,-45.41015625,-117.1875,-49.8046875,0.0
76.3203125,-362.79296875,-65.91796875,-51.26953125,-92.28515625,-14.16015625,0.0
76.32421875,-360.3515625,-61.5234375,-71.77734375,-117.67578125,-63.4765625,0.0
76.328125,-343.26171875,-54.19921875,-57.6171875,-90.8203125,-280.2734375,0.0
76.33203125,-318.359375,-37.59765625,-41.015625,-18.5546875,-271.484375,0.0
76.3359375,-242.1875,-30.76171875,-50.29296875,38.0859375,-268.5546875,0.0
76.33984375,-161.62109375,-30.76171875,-46.38671875,58.59375,-299.8046875,0.0
76.34375,-199.21875,-31.25,-34.1796875,55.17578125,-158.69140625,0.0
76.34765625,-215.33203125,-26.85546875,-27.34375,129.39453125,-22.4609375,0.0
76.3515625,-108.88671875,-26.3671875,-44.921875,201.66015625,-73.73046875,0.0
76.35546875,-56.640625,-22.94921875,-53.22265625,223.14453125,-30.76171875,0.0
76.359375,-92.28515625,-23.4375,-40.0390625,216.30859375,28.3203125,0.0
76.36328125,-110.3515625,-23.92578125,-40.52734375,237.3046875,0.9765625,0.0
76.3671875,-38.0859375,-21.97265625,-40.52734375,249.51171875,68.359375,0.0
76.37109375,-46.38671875,-17.578125,-32.71484375,290.52734375,31.25,0.0
76.375,-61.5234375,-14.16015625,-34.66796875,317.87109375,-6.34765625,0.0
76.37890625,13.18359375,-7.32421875,-40.0390625,275.87890625,18.06640625,0.0
76.3828125,4.39453125,-4.8828125,-42.96875,253.41796875,-36.62109375,0.0
76.38671875,-13.18359375,-10.7421875,-46.38671875,254.8828125,-32.2265625,0.0
76.390625,-14.6484375,-14.6484375,-36.62109375,288.0859375,12.6953125,0.0
76.39453125,-19.04296875,-8.30078125,-33.203125,269.53125,74.70703125,0.0
76.3984375,19.53125,-2.44140625,-38.0859375,256.8359375,66.40625,0.0
76.40234375,53.22265625,-11.23046875,-37.59765625,261.71875,21.97265625,0.0
76.40625,29.296875,-19.53125,-30.76171875,213.8671875,6.34765625,0.0
76.41015625,26.85546875,-11.71875,-29.78515625,222.65625,-40.0390625,0.0
76.4140625,6.8359375,-12.20703125,-31.25,241.69921875,-114.2578125,0.0
76.41796875,4.8828125,-16.11328125,-35.15625,234.86328125,-140.625,0.0
76.421875,31.25,-14.16015625,-45.41015625,239.74609375,-110.83984375,0.0
76.42578125,26.85546875,-11.23046875,-39.0625,214.35546875,-89.35546875,0.0
76.4296875,20.5078125,-17.578125,-26.85546875,194.82421875,-122.55859375,0.0
76.43359375,34.66796875,-22.94921875,-30.76171875,192.3828125,-69.82421875,0.0
76.4375,40.0390625,-15.13671875,-32.71484375,197.265625,-11.23046875,0.0
76.44140625,30.2734375,-16.6015625,-31.25,181.15234375,-32.2265625,0.0
76.4453125,41.50390625,-21.484375,-34.66796875,161.62109375,-26.85546875,0.0
76.44921875,40.52734375,-21.484375,-28.80859375,175.29296875,-49.8046875,0.0
76.453125,29.78515625,-14.16015625,-22.94921875,164.55078125,28.3203125,0.0
76.45703125,67.87109375,-12.6953125,-32.2265625,100.5859375,74.70703125,0.0
76.4609375,75.1953125,-16.6015625,-32.2265625,75.1953125,38.0859375,0.0
76.46484375,82.03125,-14.16015625,-35.64453125,118.65234375,18.06640625,0.0
76.46875,155.2734375,-17.08984375,-43.45703125,113.76953125,46.875,0.0
76.47265625,142.08984375,-26.3671875,-33.69140625,101.07421875,35.64453125,0.0
76.4765625,123.046875,-20.99609375,-28.80859375,161.1328125,-7.32421875,0.0
76.48046875,129.39453125,-18.5546875,-31.73828125,181.15234375,-64.453125,0.0
76.484375,115.72265625,-25.390625,-41.015625,159.66796875,-30.76171875,0.0
76.48828125,123.046875,-22.4609375,-45.41015625,172.36328125,-6.34765625,0.0
76.4921875,124.51171875,-23.4375,-36.1328125,154.78515625,-39.0625,0.0
76.49609375,104.98046875,-22.94921875,-35.15625,142.578125,-30.76171875,0.0
76.5,92.7734375,-17.578125,-36.1328125,161.1328125,-32.71484375,0.0
76.50390625,62.01171875,-23.4375,-32.71484375,140.13671875,-56.640625,0.0
76.5078125,77.63671875,-32.71484375,-39.0625,126.46484375,-59.5703125,0.0
76.51171875,94.7265625,-20.01953125,-28.80859375,129.8828125,0.48828125,0.0
76.515625,69.3359375,-10.25390625,-18.06640625,136.23046875,30.76171875,0.0
76.51953125,70.80078125,-18.06640625,-31.25,142.08984375,25.87890625,0.0
76.5234375,75.68359375,-21.484375,-33.203125,135.7421875,-41.015625,0.0
76.52734375,70.80078125,-21.484375,-31.73828125,142.08984375,-69.82421875,0.0
76.53125,60.05859375,-20.5078125,-28.3203125,160.15625,-66.89453125,0.0
76.53515625,63.4765625,-22.94921875,-25.87890625,177.24609375,-49.31640625,0.0
76.5390625,65.4296875,-30.76171875,-36.62109375,186.5234375,-0.48828125,0.0
76.54296875,35.64453125,-32.71484375,-36.62109375,211.9140625,6.34765625,0.0
76.546875,44.921875,-20.99609375,-27.83203125,206.54296875,-11.71875,0.0
76.55078125,69.3359375,-19.04296875,-29.296875,192.3828125,-25.87890625,0.0
76.5546875,63.96484375,-23.4375,-24.90234375,205.078125,-41.9921875,0.0
76.55859375,27.83203125,-23.4375,-26.85546875,173.33984375,-23.4375,0.0
76.5625,7.8125,-27.83203125,-32.2265625,174.31640625,-16.11328125,0.0
76.56640625,43.45703125,-20.99609375,-28.80859375,232.421875,-56.15234375,0.0
76.5703125,63.96484375,-15.625,-27.34375,239.74609375,-18.06640625,0.0
76.57421875,49.8046875,-26.3671875,-32.71484375,227.5390625,-38.57421875,0.0
76.578125,41.50390625,-28.80859375,-33.203125,271.484375,-84.9609375,0.0
76.58203125,48.828125,-32.71484375,-40.0390625,313.96484375,-77.1484375,0.0
76.5859375,52.734375,-33.203125,-39.55078125,310.546875,-50.78125,0.0
76.58984375,34.1796875,-24.4140625,-28.80859375,301.7578125,-37.109375,0.0
76.59375,9.765625,-31.25,-29.296875,290.52734375,-59.08203125,0.0
76.59765625,20.99609375,-35.15625,-35.64453125,264.16015625,-49.31640625,0.0
76.6015625,42.48046875,-31.25,-36.1328125,226.07421875,-3.90625,0.0
76.60546875,27.83203125,-31.25,-34.1796875,188.96484375,-16.6015625,0.0
76.609375,18.06640625,-32.71484375,-35.15625,186.5234375,-35.64453125,0.0
76.61328125,17.578125,-35.15625,-31.73828125,157.2265625,44.43359375,0.0
76.6171875,18.06640625,-35.15625,-37.59765625,106.93359375,73.73046875,0.0
76.62109375,14.16015625,-34.66796875,-34.1796875,99.609375,49.8046875,0.0
76.625,8.30078125,-40.0390625,-29.78515625,105.46875,-36.1328125,0.0
76.62890625,-15.625,-47.36328125,-37.109375,111.81640625,-93.26171875,0.0
76.6328125,-37.109375,-43.9453125,-34.1796875,108.3984375,-51.7578125,0.0
76.63671875,-6.8359375,-40.0390625,-31.73828125,134.27734375,-9.765625,0.0
76.640625,3.90625,-40.0390625,-35.64453125,176.7578125,-12.6953125,0.0
76.64453125,-11.71875,-42.96875,-35.15625,172.36328125,-37.59765625,0.0
76.6484375,6.8359375,-42.96875,-36.1328125,166.50390625,-38.0859375,0.0
76.65234375,12.20703125,-33.203125,-33.69140625,180.6640625,-17.08984375,0.0
76.65625,0.9765625,-32.2265625,-34.66796875,199.21875,2.9296875,0.0
76.66015625,14.6484375,-28.80859375,-30.76171875,219.23828125,35.64453125,0.0
76.6640625,7.32421875,-28.3203125,-19.04296875,210.44921875,41.50390625,0.0
76.66796875,-12.20703125,-40.52734375,-29.78515625,183.10546875,-36.62109375,0.0
76.671875,-0.9765625,-42.96875,-43.9453125,179.19921875,-28.3203125,0.0
76.67578125,15.625,-45.41015625,-50.78125,194.3359375,18.5546875,0.0
76.6796875,3.41796875,-38.57421875,-45.41015625,205.56640625,-11.71875,0.0
76.68359375,-11.71875,-34.1796875,-32.2265625,214.84375,-140.625,0.0
76.6875,11.23046875,-33.203125,-24.4140625,208.0078125,-103.515625,0.0
76.69140625,-7.32421875,-30.2734375,-28.3203125,174.31640625,19.04296875,0.0
76.6953125,-7.8125,-27.83203125,-32.2265625,152.34375,31.73828125,0.0
76.69921875,-4.39453125,-27.83203125,-29.296875,153.80859375,45.41015625,0.0
76.703125,-35.64453125,-30.76171875,-33.203125,184.08203125,51.7578125,0.0
76.70703125,-37.59765625,-31.25,-34.66796875,219.23828125,8.30078125,0.0
76.7109375,-34.1796875,-29.296875,-23.4375,241.2109375,11.23046875,0.0
76.71484375,-26.3671875,-26.3671875,-23.92578125,275.87890625,59.08203125,0.0
76.71875,-33.203125,-37.59765625,-39.0625,337.890625,32.71484375,0.0
76.72265625,-55.6640625,-51.7578125,-39.55078125,360.3515625,-74.21875,0.0
76.7265625,-49.8046875,-45.8984375,-34.66796875,360.3515625,-109.375,0.0
76.73046875,-19.53125,-33.203125,-25.390625,355.95703125,-77.63671875,0.0
76.734375,-29.78515625,-30.2734375,-27.34375,329.1015625,-62.5,0.0
76.73828125,-54.19921875,-36.1328125,-35.15625,334.47265625,-34.66796875,0.0
76.7421875,-59.08203125,-40.52734375,-27.83203125,338.37890625,-28.80859375,0.0
76.74609375,-57.12890625,-35.64453125,-23.4375,314.453125,-38.0859375,0.0
76.75,-43.45703125,-38.0859375,-28.3203125,284.66796875,-82.51953125,0.0
76.75390625,-32.71484375,-34.66796875,-26.85546875,289.0625,-43.45703125,0.0
76.7578125,-29.296875,-25.390625,-27.34375,276.85546875,-67.87109375,0.0
76.76171875,-55.6640625,-41.015625,-37.59765625,228.02734375,-107.421875,0.0
76.765625,-57.12890625,-46.875,-41.50390625,200.68359375,-91.796875,0.0
76.76953125,-50.78125,-35.64453125,-31.25,184.08203125,-95.21484375,0.0
76.7734375,-64.453125,-32.2265625,-25.87890625,176.26953125,-47.36328125,0.0
76.77734375,-58.10546875,-32.2265625,-32.71484375,169.43359375,-42.96875,0.0
76.78125,-32.2265625,-28.3203125,-29.78515625,145.5078125,-56.15234375,0.0
76.78515625,-30.2734375,-25.390625,-25.87890625,118.1640625,-7.32421875,0.0
76.7890625,-32.71484375,-23.92578125,-21.97265625,156.25,6.8359375,0.0
76.79296875,-33.203125,-19.53125,-15.13671875,191.89453125,-13.671875,0.0
76.796875,-49.8046875,-30.76171875,-23.4375,172.36328125,3.41796875,0.0
76.80078125,-53.22265625,-45.41015625,-29.78515625,167.48046875,-42.48046875,0.0
76.8046875,-50.29296875,-44.43359375,-29.78515625,153.3203125,-71.77734375,0.0
76.80859375,-34.66796875,-30.76171875,-26.3671875,123.53515625,-87.40234375,0.0
76.8125,-31.73828125,-25.390625,-21.97265625,124.51171875,-74.70703125,0.0
76.81640625,-35.15625,-30.2734375,-33.203125,117.67578125,-106.4453125,0.0
76.8203125,-34.1796875,-32.71484375,-37.59765625,102.05078125,-110.3515625,0.0
76.82421875,-16.6015625,-39.55078125,-22.4609375,102.05078125,-12.6953125,0.0
76.828125,-12.6953125,-36.62109375,-21.97265625,87.890625,-60.546875,0.0
76.83203125,-58.10546875,-24.4140625,-26.85546875,53.7109375,-46.38671875,0.0
76.8359375,-58.59375,-21.484375,-29.296875,79.58984375,-21.484375,0.0
76.83984375,-40.0390625,-20.5078125,-33.203125,114.2578125,-102.05078125,0.0
76.84375,-56.640625,-23.4375,-36.62109375,128.41796875,-104.00390625,0.0
76.84765625,-77.63671875,-31.25,-44.43359375,122.55859375,-93.26171875,0.0
76.8515625,-62.5,-25.390625,-39.0625,128.41796875,-70.3125,0.0
76.85546875,-56.15234375,-15.13671875,-37.109375,153.3203125,-28.3203125,0.0
76.859375,-59.08203125,-19.04296875,-36.62109375,132.8125,-56.640625,0.0
76.86328125,-57.12890625,-30.76171875,-36.1328125,110.83984375,-13.671875,0.0
76.8671875,-68.84765625,-39.55078125,-36.62109375,124.0234375,-20.5078125,0.0
76.87109375,-52.24609375,-33.203125,-37.109375,134.765625,-23.92578125,0.0
76.875,-28.80859375,-23.92578125,-39.55078125,129.8828125,-47.8515625,0.0
76.87890625,-31.73828125,-28.80859375,-35.15625,125.9765625,-192.87109375,0.0
76.8828125,-32.71484375,-32.2265625,-35.64453125,136.23046875,-146.484375,0.0
76.88671875,-25.390625,-29.296875,-40.0390625,112.3046875,44.921875,0.0
76.890625,-26.3671875,-35.15625,-40.0390625,87.40234375,34.1796875,0.0
76.89453125,-31.73828125,-35.15625,-51.7578125,94.23828125,-27.83203125,0.0
76.8984375,-27.83203125,-30.2734375,-55.17578125,82.03125,-7.8125,0.0
76.90234375,-22.94921875,-33.203125,-39.0625,57.12890625,34.66796875,0.0
76.90625,-32.2265625,-37.59765625,-40.0390625,41.9921875,17.578125,0.0
76.91015625,-36.1328125,-43.9453125,-42.48046875,38.0859375,-27.34375,0.0
76.9140625,-31.25,-42.48046875,-33.203125,43.9453125,-38.57421875,0.0
76.91796875,-37.109375,-33.203125,-33.203125,56.15234375,-34.66796875,0.0
76.921875,-24.4140625,-30.2734375,-38.0859375,59.5703125,-41.015625,0.0
76.92578125,-8.7890625,-36.62109375,-43.45703125,58.10546875,-68.359375,0.0
76.9296875,-11.23046875,-42.48046875,-36.62109375,70.3125,-54.19921875,0.0
76.93359375,-19.04296875,-32.71484375,-21.484375,88.8671875,-61.03515625,0.0
76.9375,-12.20703125,-32.71484375,-34.1796875,86.42578125,-72.265625,0.0
76.94140625,-15.13671875,-41.015625,-43.9453125,73.2421875,-100.09765625,0.0
76.9453125,-18.06640625,-39.0625,-39.55078125,89.84375,-128.41796875,0.0
76.94921875,-15.13671875,-33.203125,-39.55078125,95.703125,-115.72265625,0.0
76.953125,-17.578125,-35.64453125,-41.015625,78.125,-108.3984375,0.0
76.95703125,-23.92578125,-42.96875,-52.24609375,81.0546875,-107.91015625,0.0
76.9609375,-9.27734375,-31.73828125,-44.43359375,107.91015625,-137.20703125,0.0
76.96484375,-14.6484375,-27.83203125,-29.296875,115.72265625,-120.1171875,0.0
76.96875,-31.25,-40.0390625,-32.71484375,109.375,-89.84375,0.0
76.97265625,-24.90234375,-35.64453125,-34.66796875,90.33203125,-53.7109375,0.0
76.9765625,-25.390625,-29.78515625,-36.1328125,62.5,-11.23046875,0.0
76.98046875,-27.83203125,-24.90234375,-33.69140625,25.390625,-77.63671875,0.0
76.984375,-32.71484375,-22.94921875,-35.15625,-7.32421875,-119.62890625,0.0
76.98828125,-45.41015625,-29.78515625,-39.55078125,-18.5546875,-99.609375,0.0
76.9921875,-54.6875,-35.64453125,-41.50390625,5.37109375,-60.546875,0.0
76.99609375,-35.64453125,-25.390625,-46.875,23.4375,-27.34375,0.0
77.0,-28.3203125,-25.390625,-42.96875,19.04296875,-84.9609375,0.0
77.00390625,-29.78515625,-41.50390625,-36.1328125,21.484375,-131.34765625,0.0
77.0078125,-26.85546875,-44.43359375,-35.64453125,-8.30078125,-97.65625,0.0
77.01171875,-29.296875,-44.43359375,-32.71484375,-39.55078125,-11.71875,0.0
77.015625,-29.78515625,-35.64453125,-36.1328125,-30.2734375,4.8828125,0.0
77.01953125,-32.2265625,-27.34375,-34.66796875,-21.97265625,-41.9921875,0.0
77.0234375,-35.64453125,-29.296875,-31.73828125,-26.3671875,-17.578125,0.0
77.02734375,-45.8984375,-36.62109375,-37.59765625,-19.53125,29.78515625,0.0
77.03125,-42.96875,-40.52734375,-41.50390625,-24.4140625,-1.46484375,0.0
77.03515625,-35.15625,-32.2265625,-41.50390625,-33.69140625,62.98828125,0.0
77.0390625,-27.83203125,-29.78515625,-33.203125,-27.34375,125.0,0.0
77.04296875,-28.3203125,-32.2265625,-32.2265625,-16.6015625,67.3828125,0.0
77.046875,-23.92578125,-31.25,-30.76171875,20.99609375,17.578125,0.0
77.05078125,-19.04296875,-34.1796875,-33.203125,26.3671875,49.8046875,0.0
77.0546875,-18.5546875,-39.0625,-43.9453125,-8.7890625,53.7109375,0.0
77.05859375,-14.6484375,-34.66796875,-43.45703125,-18.06640625,-11.71875,0.0
77.0625,-5.859375,-36.62109375,-36.62109375,-3.41796875,-69.82421875,0.0
77.06640625,-15.13671875,-38.57421875,-44.921875,-29.78515625,-108.88671875,0.0
77.0703125,-32.71484375,-37.109375,-34.66796875,-52.734375,-55.6640625,0.0
77.07421875,-19.04296875,-35.64453125,-20.99609375,-43.45703125,13.671875,0.0
77.078125,-19.53125,-31.25,-29.296875,-57.6171875,-21.484375,0.0
77.08203125,-37.109375,-32.2265625,-33.69140625,-52.24609375,-62.01171875,0.0
77.0859375,-41.9921875,-31.25,-35.15625,-45.8984375,-21.484375,0.0
77.08984375,-39.0625,-29.296875,-33.203125,-60.546875,41.015625,0.0
77.09375,-33.69140625,-34.1796875,-30.2734375,-31.73828125,22.94921875,0.0
77.09765625,-36.1328125,-36.62109375,-35.64453125,-6.34765625,-83.984375,0.0
77.1015625,-41.9921875,-38.57421875,-45.8984375,-18.06640625,-84.9609375,0.0
77.10546875,-30.76171875,-36.1328125,-38.0859375,17.578125,-73.73046875,0.0
77.109375,-23.4375,-39.0625,-33.69140625,38.0859375,-75.1953125,0.0
77.11328125,-16.11328125,-38.0859375,-32.71484375,26.3671875,33.69140625,0.0
77.1171875,-29.296875,-36.1328125,-33.203125,9.765625,82.03125,0.0
77.12109375,-34.1796875,-37.109375,-37.59765625,8.30078125,-6.8359375,0.0
77.125,-24.4140625,-37.109375,-32.71484375,18.06640625,-37.59765625,0.0
77.12890625,-28.80859375,-40.52734375,-29.296875,15.625,-45.41015625,0.0
77.1328125,-29.296875,-37.109375,-28.80859375,32.71484375,-78.125,0.0
77.13671875,-31.73828125,-32.2265625,-27.34375,21.484375,-69.82421875,0.0
77.140625,-29.78515625,-32.71484375,-29.78515625,10.25390625,-5.37109375,0.0
77.14453125,-26.85546875,-32.2265625,-28.80859375,46.38671875,6.8359375,0.0
77.1484375,-36.62109375,-38.57421875,-32.2265625,52.734375,5.37109375,0.0
77.15234375,-44.921875,-42.96875,-34.1796875,27.34375,45.41015625,0.0
77.15625,-37.59765625,-38.57421875,-25.87890625,32.71484375,-4.39453125,0.0
77.16015625,-32.71484375,-34.1796875,-19.53125,42.96875,-60.05859375,0.0
77.1640625,-26.3671875,-34.1796875,-27.83203125,21.484375,-12.6953125,0.0
77.16796875,-23.4375,-32.71484375,-26.85546875,4.39453125,14.16015625,0.0
77.171875,-34.66796875,-32.71484375,-21.484375,-2.9296875,4.8828125,0.0
77.17578125,-27.34375,-32.71484375,-31.25,-4.39453125,32.71484375,0.0
77.1796875,-21.97265625,-30.76171875,-36.62109375,11.23046875,8.30078125,0.0
77.18359375,-36.1328125,-38.0859375,-45.8984375,33.69140625,9.27734375,0.0
77.1875,-31.73828125,-41.50390625,-50.29296875,47.36328125,45.41015625,0.0
77.19140625,-32.2265625,-40.52734375,-35.15625,40.0390625,18.06640625,0.0
77.1953125,-31.25,-41.9921875,-28.80859375,22.4609375,25.87890625,0.0
77.19921875,-23.92578125,-38.0859375,-35.64453125,14.6484375,65.91796875,0.0
77.203125,-25.390625,-38.57421875,-34.66796875,16.6015625,65.4296875,0.0
77.20703125,-32.71484375,-36.1328125,-30.2734375,23.92578125,-12.20703125,0.0
77.2109375,-25.87890625,-31.25,-30.2734375,24.4140625,-35.15625,0.0
77.21484375,-21.484375,-27.83203125,-38.0859375,16.11328125,-80.56640625,0.0
77.21875,-27.34375,-27.34375,-42.96875,21.484375,-117.1875,0.0
77.22265625,-32.71484375,-33.203125,-40.52734375,34.1796875,-54.19921875,0.0
77.2265625,-49.31640625,-37.109375,-47.36328125,39.0625,-35.15625,0.0
77.23046875,-46.875,-35.64453125,-52.734375,64.453125,-21.97265625,0.0
77.234375,-38.57421875,-31.25,-45.8984375,77.1484375,-28.3203125,0.0
77.23828125,-48.828125,-28.80859375,-36.1328125,51.7578125,-39.0625,0.0
77.2421875,-63.4765625,-40.0390625,-39.55078125,16.11328125,-44.921875,0.0
77.24609375,-66.89453125,-44.43359375,-36.62109375,-0.48828125,-71.2890625,0.0
77.25,-43.9453125,-31.25,-28.80859375,23.4375,22.4609375,0.0
77.25390625,-39.0625,-30.2734375,-30.76171875,41.50390625,52.734375,0.0
77.2578125,-43.45703125,-37.109375,-29.78515625,30.2734375,-68.84765625,0.0
77.26171875,-38.0859375,-39.0625,-32.71484375,10.7421875,-58.10546875,0.0
77.265625,-46.875,-41.9921875,-37.59765625,1.46484375,-46.38671875,0.0
77.26953125,-36.1328125,-37.109375,-34.1796875,-6.8359375,-84.47265625,0.0
77.2734375,-33.203125,-28.80859375,-34.66796875,-20.01953125,-32.71484375,0.0
77.27734375,-40.0390625,-34.1796875,-49.31640625,-41.9921875,-114.2578125,0.0
77.28125,-25.87890625,-40.52734375,-53.22265625,-45.41015625,-190.91796875,0.0
77.28515625,-24.4140625,-40.52734375,-46.38671875,-35.64453125,-101.07421875,0.0
77.2890625,-30.76171875,-41.50390625,-47.8515625,-45.41015625,-116.2109375,0.0
77.29296875,-2.44140625,-29.78515625,-32.2265625,-24.90234375,-88.37890625,0.0
77.296875,9.27734375,-25.87890625,-26.85546875,-3.41796875,10.7421875,0.0
77.30078125,-4.8828125,-37.109375,-41.015625,-5.859375,-55.17578125,0.0
77.3046875,-11.71875,-40.0390625,-36.1328125,-4.39453125,-109.375,0.0
77.30859375,-26.85546875,-40.52734375,-31.25,-20.99609375,-79.1015625,0.0
77.3125,-35.64453125,-44.43359375,-34.66796875,-39.55078125,-26.3671875,0.0
77.31640625,-38.57421875,-41.015625,-34.66796875,-26.85546875,30.2734375,0.0
77.3203125,-36.62109375,-45.8984375,-39.55078125,-13.18359375,-16.11328125,0.0
77.32421875,-30.76171875,-50.29296875,-48.828125,-14.16015625,-45.8984375,0.0
77.328125,-21.97265625,-40.52734375,-48.33984375,-20.01953125,19.53125,0.0
77.33203125,-9.765625,-36.62109375,-42.96875,-8.30078125,-21.484375,0.0
77.3359375,-16.11328125,-51.26953125,-49.31640625,0.48828125,-59.5703125,0.0
77.33984375,-18.5546875,-44.43359375,-45.8984375,10.25390625,-2.9296875,0.0
77.34375,-22.4609375,-34.66796875,-39.55078125,9.765625,20.99609375,0.0
77.34765625,-29.78515625,-43.45703125,-49.8046875,19.04296875,-12.20703125,0.0
77.3515625,-33.69140625,-36.1328125,-49.31640625,23.4375,-94.23828125,0.0
77.35546875,-23.4375,-30.2734375,-39.55078125,0.0,-187.01171875,0.0
77.359375,-23.92578125,-39.0625,-41.9921875,-29.78515625,-196.2890625,0.0
77.36328125,-44.43359375,-43.9453125,-43.45703125,-16.11328125,-185.05859375,0.0
77.3671875,-54.19921875,-44.921875,-39.55078125,0.0,-197.75390625,0.0
77.37109375,-30.2734375,-39.0625,-37.109375,-52.24609375,-138.671875,0.0
77.375,-2.9296875,-30.2734375,-34.1796875,-58.10546875,-146.97265625,0.0
77.37890625,-6.8359375,-27.34375,-35.15625,-20.99609375,-245.60546875,0.0
77.3828125,-5.859375,-21.97265625,-33.203125,19.04296875,-204.58984375,0.0
77.38671875,-23.4375,-35.15625,-38.57421875,14.6484375,-134.27734375,0.0
77.390625,-64.453125,-54.19921875,-42.96875,-24.4140625,-119.62890625,0.0
77.39453125,-56.15234375,-47.8515625,-32.71484375,-31.73828125,-14.6484375,0.0
77.3984375,-48.33984375,-45.8984375,-25.87890625,-41.50390625,72.265625,0.0
77.40234375,-55.6640625,-52.24609375,-20.01953125,-38.57421875,-12.20703125,0.0
77.40625,-70.3125,-62.98828125,-14.6484375,-18.5546875,-123.046875,0.0
77.41015625,-63.4765625,-64.453125,-7.8125,27.34375,-122.55859375,0.0
77.4140625,-30.2734375,-57.6171875,-7.8125,40.52734375,-100.09765625,0.0
77.41796875,-58.59375,-66.40625,-20.01953125,37.59765625,36.1328125,0.0
77.421875,-52.734375,-77.1484375,-23.92578125,62.01171875,78.125,0.0
77.42578125,-31.25,-80.078125,-31.73828125,61.03515625,18.5546875,0.0
77.4296875,-65.4296875,-75.68359375,-34.66796875,81.54296875,25.390625,0.0
77.43359375,-70.80078125,-66.89453125,-25.390625,101.07421875,9.765625,0.0
77.4375,-19.53125,-56.640625,-24.90234375,82.51953125,-1.46484375,0.0
77.44140625,-38.57421875,-55.6640625,-32.2265625,82.03125,-12.6953125,0.0
77.4453125,-55.17578125,-64.453125,-37.59765625,66.89453125,-9.27734375,0.0
77.44921875,-31.25,-65.91796875,-33.69140625,41.9921875,10.7421875,0.0
77.453125,-37.109375,-59.08203125,-29.78515625,52.24609375,3.90625,0.0
77.45703125,-56.15234375,-55.6640625,-36.1328125,34.66796875,22.94921875,0.0
77.4609375,-50.29296875,-45.41015625,-35.15625,40.52734375,-4.8828125,0.0
77.46484375,-18.5546875,-38.0859375,-25.390625,93.75,-29.78515625,0.0
77.46875,-15.625,-55.17578125,-33.203125,100.09765625,-62.5,0.0
77.47265625,-23.4375,-51.26953125,-33.203125,72.265625,11.71875,0.0
77.4765625,-21.484375,-42.96875,-30.76171875,39.0625,152.34375,0.0
77.48046875,-17.08984375,-45.41015625,-34.66796875,41.50390625,132.32421875,0.0
77.484375,-38.57421875,-47.36328125,-29.78515625,38.0859375,107.421875,0.0
77.48828125,-44.43359375,-58.59375,-32.2265625,21.97265625,92.28515625,0.0
77.4921875,-8.7890625,-54.19921875,-39.0625,-0.9765625,62.98828125,0.0
77.49609375,-41.9921875,-46.875,-41.9921875,-18.5546875,42.48046875,0.0
77.5,-43.9453125,-54.19921875,-38.57421875,-41.015625,25.87890625,0.0
77.50390625,-36.62109375,-49.8046875,-31.25,-91.796875,19.53125,0.0
77.5078125,-87.40234375,-44.43359375,-34.66796875,-96.19140625,24.90234375,0.0
77.51171875,-56.15234375,-36.1328125,-32.2265625,-94.23828125,-22.4609375,0.0
77.515625,-22.94921875,-26.85546875,-30.2734375,-67.3828125,-30.76171875,0.0
77.51953125,-44.921875,-41.50390625,-47.36328125,-59.08203125,-21.97265625,0.0
77.5234375,-48.828125,-55.17578125,-46.38671875,-65.91796875,-59.08203125,0.0
77.52734375,-31.73828125,-47.8515625,-38.57421875,-54.6875,-50.78125,0.0
77.53125,-46.38671875,-42.48046875,-30.76171875,-76.66015625,-61.5234375,0.0
77.53515625,-57.6171875,-42.48046875,-31.73828125,-63.96484375,-140.13671875,0.0
77.5390625,-37.59765625,-41.50390625,-44.43359375,-52.734375,-170.41015625,0.0
77.54296875,-46.875,-31.73828125,-31.25,-37.59765625,-127.9296875,0.0
77.546875,-33.69140625,-36.62109375,-27.83203125,-53.22265625,-126.953125,0.0
77.55078125,-47.8515625,-49.8046875,-38.0859375,-109.86328125,-148.92578125,0.0
77.5546875,-58.10546875,-42.96875,-29.296875,-123.046875,-186.5234375,0.0
77.55859375,-49.31640625,-39.55078125,-29.296875,-95.21484375,-184.08203125,0.0
77.5625,-48.828125,-34.66796875,-36.1328125,-62.5,-109.375,0.0
77.56640625,-26.85546875,-33.69140625,-34.1796875,-44.43359375,-131.34765625,0.0
77.5703125,2.44140625,-33.203125,-33.203125,-39.0625,-137.20703125,0.0
77.57421875,3.41796875,-33.203125,-35.64453125,-33.203125,-40.52734375,0.0
77.578125,-12.6953125,-35.64453125,-26.85546875,-41.50390625,-37.109375,0.0
77.58203125,-21.484375,-34.1796875,-13.671875,-44.43359375,-98.6328125,0.0
77.5859375,-16.6015625,-32.2265625,-27.83203125,-51.7578125,-142.578125,0.0
77.58984375,-35.15625,-27.34375,-29.78515625,-65.4296875,-62.5,0.0
77.59375,-14.6484375,-17.578125,-7.32421875,-53.22265625,-16.6015625,0.0
77.59765625,-30.76171875,-13.18359375,-25.390625,-92.7734375,55.6640625,0.0
77.6015625,-70.3125,-32.71484375,-50.78125,-132.8125,61.03515625,0.0
77.60546875,-56.15234375,-37.109375,-44.921875,-129.39453125,-56.640625,0.0
77.609375,-59.08203125,-39.0625,-28.3203125,-98.14453125,-114.2578125,0.0
77.61328125,-48.33984375,-43.9453125,-25.87890625,-84.47265625,-41.015625,0.0
77.6171875,-34.1796875,-41.9921875,-41.015625,-83.0078125,129.39453125,0.0
77.62109375,-99.12109375,-47.36328125,-39.0625,-73.73046875,133.30078125,0.0
77.625,-81.54296875,-31.25,-31.73828125,-77.1484375,73.73046875,0.0
77.62890625,-90.33203125,-30.2734375,-28.3203125,-78.61328125,67.3828125,0.0
77.6328125,-93.75,-38.0859375,-28.80859375,-74.70703125,78.61328125,0.0
77.63671875,27.83203125,-18.5546875,-35.15625,-50.78125,82.03125,0.0
77.640625,-5.37109375,-20.01953125,-39.0625,-54.19921875,19.53125,0.0
77.64453125,-53.7109375,-32.71484375,-29.78515625,-36.62109375,15.625,0.0
77.6484375,-33.69140625,-27.83203125,-23.92578125,-25.87890625,66.40625,0.0
77.65234375,-51.7578125,-27.34375,-23.92578125,-34.66796875,69.82421875,0.0
77.65625,-28.3203125,-18.5546875,-20.5078125,8.30078125,-2.44140625,0.0
77.66015625,-13.671875,-20.01953125,-32.71484375,6.8359375,20.5078125,0.0
77.6640625,-46.38671875,-44.43359375,-31.73828125,-17.08984375,27.83203125,0.0
77.66796875,-39.55078125,-40.0390625,-21.484375,-4.8828125,-50.29296875,0.0
77.671875,-41.9921875,-13.18359375,-29.296875,-11.23046875,-7.32421875,0.0
77.67578125,-52.734375,-10.7421875,-38.0859375,-46.875,62.01171875,0.0
77.6796875,-38.57421875,-13.671875,-37.109375,-76.66015625,21.97265625,0.0
77.68359375,-35.64453125,-2.9296875,-44.43359375,-68.84765625,-13.671875,0.0
77.6875,-26.3671875,-0.48828125,-46.875,-19.04296875,-30.76171875,0.0
77.69140625,-59.08203125,7.32421875,-42.96875,18.06640625,-27.83203125,0.0
77.6953125,-70.3125,8.7890625,-53.22265625,28.3203125,25.390625,0.0
77.69921875,-73.2421875,16.6015625,-56.15234375,-0.9765625,-16.11328125,0.0
77.703125,-76.66015625,20.01953125,-45.8984375,-34.66796875,-20.5078125,0.0
77.70703125,5.37109375,4.8828125,-43.9453125,24.4140625,-18.5546875,0.0
77.7109375,-19.53125,10.7421875,-43.45703125,139.6484375,-15.13671875,0.0
77.71484375,-54.6875,-2.9296875,-49.31640625,204.1015625,3.90625,0.0
77.71875,-21.484375,-4.39453125,-49.8046875,263.671875,47.8515625,0.0
77.72265625,-3.41796875,0.9765625,-50.78125,268.5546875,80.078125,0.0
77.7265625,-65.91796875,-17.08984375,-49.31640625,190.4296875,48.33984375,0.0
77.73046875,-67.3828125,-20.01953125,-37.109375,170.8984375,10.7421875,0.0
77.734375,-16.11328125,-11.23046875,-34.1796875,206.54296875,-19.04296875,0.0
77.73828125,-26.3671875,-8.30078125,-47.8515625,178.7109375,0.48828125,0.0
77.7421875,-7.8125,-8.30078125,-43.45703125,143.5546875,-62.01171875,0.0
77.74609375,-2.9296875,-5.859375,-23.92578125,161.1328125,-86.42578125,0.0
77.75,-11.23046875,-7.32421875,-20.5078125,144.04296875,17.578125,0.0
77.75390625,6.8359375,-14.16015625,-25.87890625,117.1875,55.17578125,0.0
77.7578125,-6.34765625,-13.18359375,-28.80859375,111.81640625,62.01171875,0.0
77.76171875,-26.3671875,-16.11328125,-37.59765625,106.93359375,-14.6484375,0.0
77.765625,12.20703125,-21.484375,-44.43359375,82.03125,-18.5546875,0.0
77.76953125,40.0390625,-14.16015625,-38.0859375,115.234375,74.21875,0.0
77.7734375,20.5078125,-15.625,-23.92578125,140.625,45.8984375,0.0
77.77734375,8.7890625,-18.5546875,-29.78515625,132.32421875,-1.46484375,0.0
77.78125,9.27734375,-24.90234375,-44.43359375,136.23046875,-13.671875,0.0
77.78515625,-7.8125,-25.87890625,-35.64453125,103.515625,52.24609375,0.0
77.7890625,-9.765625,-28.80859375,-20.01953125,106.93359375,54.19921875,0.0
77.79296875,11.23046875,-22.4609375,-19.04296875,150.390625,20.99609375,0.0
77.796875,9.27734375,-26.85546875,-41.9921875,160.15625,-9.765625,0.0
77.80078125,-7.8125,-42.96875,-42.48046875,146.484375,-86.9140625,0.0
77.8046875,-11.71875,-36.62109375,-26.85546875,145.5078125,-111.328125,0.0
77.80859375,3.41796875,-30.76171875,-26.3671875,146.484375,-145.5078125,0.0
77.8125,9.27734375,-26.85546875,-26.3671875,125.48828125,-118.1640625,0.0
77.81640625,9.765625,-22.4609375,-28.80859375,103.515625,-95.21484375,0.0
77.8203125,7.32421875,-19.04296875,-33.203125,100.5859375,-84.9609375,0.0
77.82421875,10.7421875,-22.4609375,-33.69140625,106.93359375,-91.796875,0.0
77.828125,11.71875,-29.296875,-28.3203125,98.14453125,-20.01953125,0.0
77.83203125,-20.5078125,-40.52734375,-36.1328125,64.94140625,62.01171875,0.0
77.8359375,-9.765625,-42.96875,-41.50390625,85.9375,8.7890625,0.0
77.83984375,27.34375,-33.203125,-22.4609375,160.64453125,6.34765625,0.0
77.84375,44.921875,-41.9921875,-24.4140625,149.4140625,-30.76171875,0.0
77.84765625,63.4765625,-46.38671875,-49.31640625,118.1640625,-63.4765625,0.0
77.8515625,63.4765625,-34.66796875,-44.921875,108.88671875,-44.43359375,0.0
77.85546875,53.22265625,-27.34375,-21.97265625,88.37890625,-104.00390625,0.0
77.859375,13.671875,-35.15625,-22.4609375,65.4296875,-101.5625,0.0
77.86328125,7.8125,-34.66796875,-34.1796875,51.7578125,-89.84375,0.0
77.8671875,-0.48828125,-38.57421875,-9.27734375,98.6328125,-101.07421875,0.0
77.87109375,-17.578125,-42.96875,-13.18359375,103.02734375,-9.27734375,0.0
77.875,-30.2734375,-19.04296875,-35.64453125,95.703125,5.37109375,0.0
77.87890625,-90.33203125,-21.484375,-25.87890625,60.546875,-72.265625,0.0
77.8828125,-88.8671875,-17.08984375,-13.18359375,11.23046875,-85.44921875,0.0
77.88671875,6.8359375,23.4375,-13.671875,58.59375,-97.16796875,0.0
77.890625,37.59765625,64.453125,-9.765625,89.35546875,-146.484375,0.0
77.89453125,-46.38671875,25.87890625,-59.08203125,-51.26953125,-135.7421875,0.0
77.8984375,-133.30078125,-19.04296875,-97.65625,-194.3359375,-111.328125,0.0
77.90234375,-171.38671875,-29.296875,-75.68359375,-287.109375,-113.76953125,0.0
77.90625,-141.6015625,-27.34375,-28.3203125,-258.7890625,-60.05859375,0.0
77.91015625,-47.8515625,30.76171875,-35.15625,-238.76953125,9.27734375,0.0
77.9140625,-58.10546875,64.453125,-84.47265625,-292.96875,54.6875,0.0
77.91796875,-144.53125,19.04296875,-47.8515625,-461.42578125,1.46484375,0.0
77.921875,-243.65234375,-33.203125,-59.5703125,-615.72265625,-88.8671875,0.0
77.92578125,-238.28125,-12.6953125,-82.51953125,-595.703125,-97.16796875,0.0
77.9296875,-194.3359375,-2.9296875,-70.3125,-620.1171875,-92.7734375,0.0
77.93359375,-133.30078125,28.3203125,-45.8984375,-592.7734375,-102.5390625,0.0
77.9375,-76.66015625,50.29296875,-44.921875,-545.8984375,-69.3359375,0.0
77.94140625,-87.40234375,60.546875,-42.48046875,-558.10546875,11.71875,0.0
77.9453125,-174.8046875,43.9453125,-68.359375,-537.109375,51.7578125,0.0
77.94921875,-220.703125,30.2734375,-91.796875,-521.484375,-33.69140625,0.0
77.953125,-132.32421875,52.24609375,-87.40234375,-489.2578125,-115.72265625,0.0
77.95703125,10.25390625,60.05859375,-90.33203125,-404.78515625,-108.3984375,0.0
77.9609375,-40.0390625,89.35546875,-40.52734375,-400.390625,-64.94140625,0.0
77.96484375,-198.2421875,74.21875,-43.45703125,-509.27734375,-14.6484375,0.0
77.96875,-166.015625,54.6875,-44.921875,-471.19140625,42.96875,0.0
77.97265625,-111.328125,96.19140625,-57.12890625,-354.98046875,14.6484375,0.0
77.9765625,-120.60546875,98.6328125,-92.28515625,-384.27734375,-21.97265625,0.0
77.98046875,-146.97265625,37.59765625,-135.25390625,-410.64453125,20.01953125,0.0
77.984375,-126.46484375,29.296875,-141.11328125,-435.546875,-59.08203125,0.0
77.98828125,-47.36328125,27.83203125,-66.40625,-425.78125,-78.125,0.0
77.9921875,-27.83203125,40.0390625,-53.22265625,-407.71484375,-49.31640625,0.0
77.99609375,-56.15234375,57.6171875,-54.6875,-479.4921875,-24.4140625,0.0
78.0,-9.27734375,47.36328125,-56.640625,-410.15625,-4.39453125,0.0
78.00390625,39.0625,29.296875,-83.0078125,-360.3515625,-48.33984375,0.0
78.0078125,112.79296875,42.96875,-64.453125,-301.7578125,-69.82421875,0.0
78.01171875,139.6484375,65.91796875,-26.85546875,-229.98046875,-72.265625,0.0
78.015625,40.0390625,17.578125,-38.0859375,-260.25390625,-54.6875,0.0
78.01953125,-31.73828125,7.8125,-36.1328125,-279.296875,-88.8671875,0.0
78.0234375,-23.4375,28.3203125,-30.76171875,-293.45703125,-43.9453125,0.0
78.02734375,-21.97265625,-0.9765625,-33.203125,-344.7265625,-3.90625,0.0
78.03125,-16.11328125,-10.25390625,-23.92578125,-362.79296875,-38.57421875,0.0
78.03515625,28.3203125,1.953125,-12.20703125,-344.23828125,-49.31640625,0.0
78.0390625,-2.44140625,-20.5078125,16.11328125,-367.67578125,-56.15234375,0.0
78.04296875,-12.6953125,-43.9453125,-0.9765625,-406.73828125,-25.390625,0.0
78.046875,7.8125,-47.8515625,-8.30078125,-408.203125,-41.9921875,0.0
78.05078125,37.109375,-24.90234375,10.7421875,-406.73828125,1.46484375,0.0
78.0546875,67.3828125,-28.3203125,1.953125,-553.7109375,32.2265625,0.0
78.05859375,56.640625,-46.875,-24.90234375,-718.75,-13.18359375,0.0
78.0625,139.16015625,-52.24609375,-18.06640625,-776.85546875,26.85546875,0.0
78.06640625,169.43359375,-61.5234375,-30.76171875,-826.171875,-11.23046875,0.0
78.0703125,91.796875,-57.6171875,-51.7578125,-830.078125,-73.2421875,0.0
78.07421875,67.3828125,-87.40234375,4.39453125,-879.39453125,-28.80859375,0.0
78.078125,120.1171875,-90.33203125,34.1796875,-835.9375,-49.8046875,0.0
78.08203125,114.74609375,-80.56640625,10.7421875,-779.296875,-52.734375,0.0
78.0859375,38.0859375,-85.9375,-11.23046875,-811.5234375,6.8359375,0.0
78.08984375,34.66796875,-67.3828125,-20.01953125,-713.8671875,13.671875,0.0
78.09375,61.03515625,-49.8046875,-10.7421875,-587.890625,-32.2265625,0.0
78.09765625,10.25390625,-75.1953125,8.30078125,-524.4140625,-60.546875,0.0
78.1015625,0.0,-74.21875,2.44140625,-433.10546875,4.39453125,0.0
78.10546875,89.84375,-45.41015625,-8.30078125,-280.76171875,40.0390625,0.0
78.109375,100.09765625,-55.17578125,19.04296875,-215.33203125,-5.37109375,0.0
78.11328125,67.3828125,-82.03125,29.78515625,-275.87890625,-25.87890625,0.0
78.1171875,120.60546875,-80.56640625,13.18359375,-286.1328125,-41.015625,0.0
78.12109375,135.7421875,-61.5234375,-13.18359375,-282.2265625,-13.671875,0.0
78.125,91.30859375,-69.3359375,-8.30078125,-316.89453125,60.546875,0.0
78.12890625,96.6796875,-84.9609375,20.5078125,-330.56640625,-25.87890625,0.0
78.1328125,99.12109375,-89.84375,10.25390625,-316.89453125,-69.3359375,0.0
78.13671875,90.8203125,-73.2421875,-19.04296875,-303.22265625,16.6015625,0.0
78.140625,92.7734375,-64.453125,-22.94921875,-303.7109375,-43.9453125,0.0
78.14453125,140.13671875,-69.3359375,-1.953125,-268.06640625,-62.98828125,0.0
78.1484375,138.18359375,-69.3359375,-16.11328125,-187.98828125,-19.53125,0.0
78.15234375,88.8671875,-70.80078125,-32.71484375,-202.63671875,-57.12890625,0.0
78.15625,94.23828125,-58.59375,-12.20703125,-246.09375,-89.35546875,0.0
78.16015625,77.63671875,-70.80078125,-0.9765625,-200.1953125,-26.3671875,0.0
78.1640625,122.0703125,-97.65625,-5.37109375,-142.578125,-0.48828125,0.0
78.16796875,106.4453125,-73.73046875,-13.671875,-144.04296875,-23.92578125,0.0
78.171875,-25.390625,-55.6640625,-6.34765625,-116.69921875,-41.9921875,0.0
78.17578125,-38.0859375,-57.12890625,-0.9765625,-56.15234375,-75.1953125,0.0
78.1796875,8.7890625,-74.21875,-5.37109375,-50.29296875,-52.734375,0.0
78.18359375,39.55078125,-86.42578125,-20.5078125,-55.17578125,-20.5078125,0.0
78.1875,74.70703125,-62.5,-56.640625,41.9921875,-48.33984375,0.0
78.19140625,100.5859375,-36.1328125,-8.30078125,99.609375,-41.50390625,0.0
78.1953125,76.171875,-34.1796875,47.8515625,5.859375,8.30078125,0.0
78.19921875,65.4296875,-32.71484375,-14.16015625,-33.69140625,17.578125,0.0
78.203125,51.26953125,-44.921875,-21.97265625,-32.2265625,4.39453125,0.0
78.20703125,58.59375,-77.63671875,-19.53125,-60.546875,-4.8828125,0.0
78.2109375,45.41015625,-63.96484375,-15.13671875,-47.36328125,21.484375,0.0
78.21484375,40.52734375,-35.64453125,30.2734375,18.5546875,-2.9296875,0.0
78.21875,34.66796875,-64.94140625,-11.71875,54.6875,-75.1953125,0.0
78.22265625,1.953125,-63.4765625,-31.73828125,18.5546875,-91.796875,0.0
78.2265625,34.1796875,-57.12890625,-18.06640625,-26.3671875,-51.7578125,0.0
78.23046875,45.41015625,-61.03515625,-29.78515625,-16.6015625,-19.53125,0.0
78.234375,49.8046875,-61.03515625,-19.53125,17.08984375,24.4140625,0.0
78.23828125,64.453125,-84.9609375,-9.765625,7.32421875,48.33984375,0.0
78.2421875,49.31640625,-64.94140625,-12.20703125,-17.578125,5.37109375,0.0
78.24609375,39.0625,-28.3203125,-10.25390625,4.8828125,-10.7421875,0.0
78.25,17.578125,-20.01953125,-10.7421875,41.50390625,-108.3984375,0.0
78.25390625,-5.37109375,-61.5234375,-27.83203125,18.5546875,-96.6796875,0.0
78.2578125,9.765625,-65.91796875,-23.92578125,-18.06640625,-30.76171875,0.0
78.26171875,-1.46484375,-57.6171875,-32.2265625,-52.24609375,-42.48046875,0.0
78.265625,1.46484375,-69.3359375,-36.62109375,-46.875,-5.859375,0.0
78.26953125,53.22265625,-36.62109375,-4.8828125,10.25390625,1.953125,0.0
78.2734375,96.19140625,-19.53125,-12.6953125,62.01171875,-67.87109375,0.0
78.27734375,45.41015625,-52.734375,-39.55078125,13.18359375,-48.828125,0.0
78.28125,20.01953125,-60.05859375,-27.34375,-38.0859375,0.0,0.0
78.28515625,55.6640625,-47.8515625,1.46484375,33.203125,-18.5546875,0.0
78.2890625,85.9375,-41.9921875,88.8671875,79.58984375,-73.2421875,0.0
78.29296875,119.140625,-47.36328125,165.52734375,88.8671875,-97.65625,0.0
78.296875,98.14453125,-49.31640625,169.43359375,128.41796875,-80.078125,0.0
78.30078125,36.62109375,-35.15625,174.31640625,182.6171875,-102.5390625,0.0
78.3046875,40.52734375,-38.57421875,176.7578125,222.16796875,-120.1171875,0.0
78.30859375,68.359375,-38.57421875,187.01171875,239.2578125,-70.3125,0.0
78.3125,42.96875,-29.78515625,201.66015625,230.46875,-48.828125,0.0
78.31640625,14.16015625,-39.55078125,174.8046875,211.42578125,-47.36328125,0.0
78.3203125,8.30078125,-51.26953125,135.25390625,224.12109375,-95.703125,0.0
78.32421875,27.34375,-53.7109375,129.39453125,269.04296875,-141.6015625,0.0
78.328125,1.953125,-59.08203125,126.46484375,239.74609375,-89.35546875,0.0
78.33203125,-35.15625,-56.15234375,110.3515625,193.359375,-37.59765625,0.0
78.3359375,-1.46484375,-50.29296875,93.26171875,199.70703125,-6.8359375,0.0
78.33984375,57.6171875,-36.1328125,90.33203125,230.46875,-35.15625,0.0
78.34375,107.421875,-28.80859375,95.703125,245.1171875,-83.0078125,0.0
78.34765625,130.37109375,-40.0390625,106.4453125,254.8828125,-68.359375,0.0
78.3515625,93.26171875,-40.52734375,103.02734375,200.68359375,-40.52734375,0.0
78.35546875,104.98046875,-25.390625,108.88671875,131.34765625,21.97265625,0.0
78.359375,117.1875,-41.50390625,106.93359375,145.01953125,-11.71875,0.0
78.36328125,60.546875,-55.6640625,100.09765625,177.734375,-71.2890625,0.0
78.3671875,36.1328125,-49.8046875,78.61328125,193.359375,-49.8046875,0.0
78.37109375,4.39453125,-43.9453125,53.7109375,153.80859375,-25.390625,0.0
78.375,-10.25390625,-31.73828125,67.3828125,131.34765625,-15.13671875,0.0
78.37890625,-7.32421875,-35.64453125,65.91796875,161.1328125,-32.2265625,0.0
78.3828125,2.44140625,-55.6640625,66.89453125,191.40625,-17.578125,0.0
78.38671875,37.59765625,-48.33984375,83.0078125,207.51953125,6.34765625,0.0
78.390625,20.5078125,-12.6953125,77.63671875,191.89453125,-29.78515625,0.0
78.39453125,-22.94921875,-20.5078125,46.38671875,145.5078125,-10.25390625,0.0
78.3984375,-19.53125,-30.76171875,52.734375,84.9609375,37.109375,0.0
78.40234375,-41.50390625,-34.1796875,44.43359375,27.34375,36.62109375,0.0
78.40625,-79.1015625,-57.6171875,27.83203125,24.4140625,48.828125,0.0
78.41015625,-53.22265625,-65.4296875,14.6484375,52.24609375,-14.6484375,0.0
78.4140625,-39.0625,-34.1796875,-2.44140625,76.171875,-11.23046875,0.0
78.41796875,-19.04296875,-7.8125,23.92578125,20.5078125,6.8359375,0.0
78.421875,3.41796875,-22.94921875,38.57421875,-78.61328125,-62.01171875,0.0
78.42578125,-52.734375,-57.6171875,27.83203125,-82.03125,-10.7421875,0.0
78.4296875,-87.40234375,-83.984375,23.92578125,-62.5,-117.67578125,0.0
78.43359375,-59.5703125,-64.453125,39.55078125,-65.4296875,-212.890625,0.0
78.4375,-28.3203125,-42.48046875,-25.390625,-111.328125,-151.85546875,0.0
78.44140625,-16.11328125,-49.31640625,-59.5703125,-172.8515625,-154.78515625,0.0
78.4453125,-37.109375,-53.22265625,0.9765625,-163.0859375,-142.578125,0.0
78.44921875,-46.875,-59.5703125,8.30078125,-123.046875,-117.1875,0.0
78.453125,-29.296875,-67.3828125,18.06640625,-81.0546875,-133.30078125,0.0
78.45703125,-11.23046875,-64.94140625,14.16015625,-83.0078125,-124.51171875,0.0
78.4609375,42.96875,-26.85546875,5.859375,-54.6875,-107.91015625,0.0
78.46484375,50.29296875,-20.5078125,1.953125,-44.921875,-126.46484375,0.0
78.46875,7.32421875,-65.91796875,-15.13671875,-89.84375,-205.56640625,0.0
78.47265625,34.66796875,-53.22265625,14.16015625,-49.8046875,-214.84375,0.0
78.4765625,23.92578125,-41.9921875,-2.9296875,-48.828125,-131.34765625,0.0
78.48046875,1.46484375,-43.9453125,-20.99609375,-45.8984375,-59.5703125,0.0
78.484375,6.8359375,-40.0390625,-5.859375,-34.1796875,-3.41796875,0.0
78.48828125,34.66796875,-62.5,4.8828125,-16.6015625,87.890625,0.0
78.4921875,48.828125,-55.17578125,28.80859375,16.6015625,113.76953125,0.0
78.49609375,43.9453125,-20.01953125,16.6015625,20.5078125,119.62890625,0.0
78.5,84.9609375,-7.8125,-16.6015625,15.13671875,136.71875,0.0
78.50390625,104.98046875,-19.53125,-28.3203125,-16.6015625,63.4765625,0.0
78.5078125,37.59765625,-47.8515625,-8.7890625,-10.7421875,31.25,0.0
78.51171875,-10.7421875,-56.640625,-7.32421875,74.70703125,72.75390625,0.0
78.515625,31.73828125,-29.296875,-13.18359375,128.41796875,43.45703125,0.0
78.51953125,72.265625,-20.99609375,14.16015625,104.98046875,29.296875,0.0
78.5234375,71.77734375,-37.109375,-7.32421875,52.734375,8.30078125,0.0
78.52734375,24.90234375,-44.43359375,-24.90234375,57.12890625,-34.66796875,0.0
78.53125,-54.6875,-42.48046875,-7.32421875,44.921875,-29.296875,0.0
78.53515625,-87.40234375,-34.1796875,-18.06640625,-8.7890625,-1.953125,0.0
78.5390625,-46.38671875,-34.66796875,-29.78515625,-17.08984375,-33.69140625,0.0
78.54296875,-14.6484375,-34.66796875,-27.34375,-7.8125,-29.78515625,0.0
78.546875,18.5546875,-42.48046875,-27.34375,28.80859375,-26.85546875,0.0
78.55078125,36.62109375,-38.0859375,-6.34765625,35.64453125,-68.84765625,0.0
78.5546875,22.4609375,-21.484375,8.7890625,16.6015625,-30.2734375,0.0
78.55859375,8.30078125,-22.94921875,-8.30078125,9.765625,-0.9765625,0.0
78.5625,-6.34765625,-40.52734375,-29.78515625,12.20703125,40.52734375,0.0
78.56640625,19.04296875,-53.22265625,-4.39453125,44.43359375,36.62109375,0.0
78.5703125,69.82421875,-43.9453125,15.625,42.96875,25.87890625,0.0
78.57421875,118.1640625,-25.390625,-2.44140625,49.8046875,1.953125,0.0
78.578125,103.02734375,-28.80859375,-19.04296875,22.94921875,-12.6953125,0.0
78.58203125,68.84765625,-35.15625,-35.64453125,-11.71875,-7.8125,0.0
78.5859375,50.29296875,-26.3671875,-3.41796875,-3.41796875,-11.71875,0.0
78.58984375,-16.11328125,-31.25,15.13671875,-23.4375,16.6015625,0.0
78.59375,-45.8984375,-35.64453125,-15.625,-78.125,30.2734375,0.0
78.59765625,-43.45703125,-31.73828125,-20.01953125,-93.75,48.33984375,0.0
78.6015625,-23.4375,-26.85546875,-17.08984375,-75.68359375,26.85546875,0.0
78.60546875,7.32421875,-32.71484375,-15.13671875,-141.11328125,-131.8359375,0.0
78.609375,43.9453125,-21.97265625,0.48828125,-191.40625,-99.609375,0.0
78.61328125,50.78125,-28.3203125,-19.53125,-208.984375,41.015625,0.0
78.6171875,8.7890625,-42.96875,-29.78515625,-203.61328125,7.32421875,0.0
78.62109375,-12.20703125,-52.734375,-15.13671875,-221.6796875,20.01953125,0.0
78.625,19.04296875,-57.6171875,-11.71875,-230.46875,-9.27734375,0.0
78.62890625,50.78125,-23.4375,1.953125,-187.98828125,-60.546875,0.0
78.6328125,40.52734375,-13.18359375,-33.203125,-238.28125,-89.35546875,0.0
78.63671875,63.96484375,-3.41796875,-25.390625,-243.1640625,-29.78515625,0.0
78.640625,64.453125,-12.20703125,-5.859375,-208.49609375,-22.94921875,0.0
78.64453125,9.765625,-58.10546875,-17.578125,-215.33203125,-64.94140625,0.0
78.6484375,-12.20703125,-64.94140625,-18.5546875,-219.7265625,-10.25390625,0.0
78.65234375,25.390625,-43.45703125,0.48828125,-220.21484375,-21.97265625,0.0
78.65625,24.4140625,-43.9453125,-1.46484375,-246.58203125,-9.27734375,0.0
78.66015625,17.578125,-33.203125,-19.53125,-242.1875,62.01171875,0.0
78.6640625,36.1328125,-41.50390625,-15.13671875,-208.0078125,-26.85546875,0.0
78.66796875,33.203125,-66.40625,-11.23046875,-191.40625,-59.08203125,0.0
78.671875,61.5234375,-20.5078125,21.484375,-122.55859375,2.44140625,0.0
78.67578125,51.7578125,-14.16015625,7.32421875,-105.95703125,-64.453125,0.0
78.6796875,12.6953125,-53.22265625,-28.80859375,-130.37109375,-115.234375,0.0
78.68359375,24.90234375,-60.05859375,-28.80859375,-104.00390625,-105.46875,0.0
78.6875,17.578125,-57.6171875,-50.78125,-125.48828125,-97.16796875,0.0
78.69140625,2.9296875,-43.45703125,-62.5,-131.34765625,-61.03515625,0.0
78.6953125,18.06640625,-36.62109375,-62.5,-102.5390625,-74.70703125,0.0
78.69921875,26.85546875,-34.1796875,-58.10546875,-110.83984375,22.94921875,0.0
78.703125,56.15234375,-33.69140625,-32.71484375,-103.515625,126.46484375,0.0
78.70703125,75.1953125,-51.7578125,-12.6953125,-36.1328125,-20.5078125,0.0
78.7109375,8.7890625,-54.19921875,-18.5546875,-15.13671875,-57.12890625,0.0
78.71484375,-35.64453125,-54.19921875,-29.296875,-64.453125,-34.66796875,0.0
78.71875,-28.80859375,-53.7109375,-49.31640625,-49.31640625,-131.34765625,0.0
78.72265625,-7.8125,-43.9453125,-51.7578125,-2.44140625,-161.62109375,0.0
78.7265625,28.80859375,-29.296875,-11.71875,18.5546875,-194.3359375,0.0
78.73046875,42.48046875,-24.90234375,-13.18359375,14.6484375,-109.375,0.0
78.734375,55.6640625,-46.38671875,-49.31640625,-13.671875,-66.40625,0.0
78.73828125,55.6640625,-54.19921875,-52.24609375,-45.8984375,-133.7890625,0.0
78.7421875,28.80859375,-58.10546875,-40.52734375,-37.109375,-260.7421875,0.0
78.74609375,17.08984375,-59.5703125,-35.64453125,-39.55078125,-418.9453125,0.0
78.75,6.34765625,-49.31640625,-23.92578125,-43.45703125,-378.90625,0.0
78.75390625,3.41796875,-61.03515625,-15.625,-39.0625,-197.265625,0.0
78.7578125,37.109375,-39.55078125,-17.578125,-13.18359375,-20.99609375,0.0
78.76171875,59.08203125,-0.9765625,-32.2265625,7.8125,-27.83203125,0.0
78.765625,60.05859375,-12.6953125,-41.015625,-27.34375,-85.44921875,0.0
78.76953125,45.41015625,-39.55078125,-35.64453125,-25.390625,-51.26953125,0.0
78.7734375,40.52734375,-35.15625,-33.203125,-6.34765625,60.546875,0.0
78.77734375,49.31640625,-33.203125,-9.27734375,2.9296875,86.42578125,0.0
78.78125,33.203125,-30.2734375,9.765625,13.18359375,-52.24609375,0.0
78.78515625,-5.37109375,-26.3671875,1.46484375,14.6484375,-59.5703125,0.0
78.7890625,-26.3671875,-56.15234375,-25.87890625,8.30078125,-4.8828125,0.0
78.79296875,12.20703125,-48.828125,-17.08984375,22.4609375,-21.484375,0.0
78.796875,65.91796875,-28.3203125,-2.9296875,56.640625,-87.40234375,0.0
78.80078125,41.50390625,-20.5078125,-0.48828125,96.19140625,-167.96875,0.0
78.8046875,-13.671875,-25.390625,-13.18359375,99.609375,-180.17578125,0.0
78.80859375,24.4140625,-35.15625,-28.80859375,98.14453125,-139.6484375,0.0
78.8125,67.3828125,-24.4140625,0.9765625,85.44921875,-122.0703125,0.0
78.81640625,55.17578125,-10.7421875,12.6953125,46.875,-116.2109375,0.0
78.8203125,37.59765625,-29.78515625,-1.46484375,67.87109375,-59.5703125,0.0
78.82421875,12.20703125,-35.64453125,-3.90625,75.1953125,-73.73046875,0.0
78.828125,-29.78515625,-27.34375,-18.06640625,60.05859375,-75.1953125,0.0
78.83203125,-22.94921875,-35.15625,-5.859375,80.56640625,-85.44921875,0.0
78.8359375,25.87890625,-36.62109375,24.90234375,110.3515625,-163.57421875,0.0
78.83984375,33.69140625,-30.2734375,3.90625,79.58984375,-124.0234375,0.0
78.84375,-17.578125,-37.109375,-39.55078125,7.32421875,-106.4453125,0.0
78.84765625,-41.9921875,-43.45703125,-32.2265625,-10.7421875,-112.3046875,0.0
78.8515625,1.46484375,-26.85546875,-16.11328125,3.90625,-55.17578125,0.0
78.85546875,39.0625,-8.30078125,-11.23046875,11.23046875,9.765625,0.0
78.859375,37.59765625,-15.13671875,-17.08984375,6.8359375,-32.71484375,0.0
78.86328125,-8.30078125,-36.1328125,-23.4375,-8.30078125,-101.07421875,0.0
78.8671875,-35.64453125,-43.45703125,-8.7890625,-12.20703125,-124.0234375,0.0
78.87109375,13.18359375,-38.57421875,7.32421875,1.953125,-130.859375,0.0
78.875,31.25,-26.3671875,10.7421875,10.7421875,-84.9609375,0.0
78.87890625,-8.7890625,-39.55078125,-15.625,1.46484375,-34.66796875,0.0
78.8828125,-26.3671875,-60.05859375,-41.50390625,-11.71875,-19.53125,0.0
78.88671875,-27.34375,-50.78125,-33.203125,-28.3203125,-72.75390625,0.0
78.890625,9.765625,-20.5078125,4.8828125,-1.46484375,-97.65625,0.0
78.89453125,22.94921875,-18.5546875,2.9296875,2.9296875,-71.77734375,0.0
78.8984375,-28.3203125,-52.24609375,-46.875,-74.21875,-20.01953125,0.0
78.90234375,-34.66796875,-40.52734375,-64.94140625,-96.19140625,41.015625,0.0
78.90625,-9.27734375,-20.01953125,-44.43359375,-40.0390625,11.71875,0.0
78.91015625,6.8359375,-25.390625,-65.4296875,15.625,-70.3125,0.0
78.9140625,13.671875,-30.76171875,-167.48046875,-1.46484375,-51.26953125,0.0
78.91796875,13.671875,-23.4375,-271.484375,-25.390625,13.671875,0.0
78.921875,-10.25390625,-33.203125,-293.9453125,25.390625,-60.546875,0.0
78.92578125,-69.82421875,-60.546875,-286.1328125,22.4609375,-138.671875,0.0
78.9296875,-64.453125,-46.875,-274.90234375,-0.48828125,-31.73828125,0.0
78.93359375,6.8359375,1.46484375,-231.4453125,39.0625,32.2265625,0.0
78.9375,-1.953125,-5.859375,-220.703125,11.71875,32.71484375,0.0
78.94140625,-119.62890625,-54.6875,-236.328125,-83.0078125,65.91796875,0.0
78.9453125,-180.6640625,-78.125,-241.69921875,-163.0859375,25.87890625,0.0
78.94921875,-152.34375,-70.3125,-203.125,-123.53515625,-49.8046875,0.0
78.953125,-147.4609375,-56.15234375,-160.64453125,-106.93359375,-59.5703125,0.0
78.95703125,-189.94140625,-73.2421875,-179.19921875,-201.171875,-1.953125,0.0
78.9609375,-228.02734375,-89.84375,-174.8046875,-248.046875,40.52734375,0.0
78.96484375,-267.08984375,-104.98046875,-153.80859375,-257.8125,102.05078125,0.0
78.96875,-275.87890625,-127.44140625,-157.71484375,-226.07421875,49.8046875,0.0
78.97265625,-272.94921875,-127.44140625,-160.64453125,-212.890625,-8.7890625,0.0
78.9765625,-271.97265625,-111.328125,-111.81640625,-297.36328125,26.85546875,0.0
78.98046875,-279.296875,-125.0,-115.234375,-434.5703125,39.0625,0.0
78.984375,-300.78125,-146.97265625,-165.52734375,-507.8125,44.43359375,0.0
78.98828125,-295.41015625,-147.4609375,-111.81640625,-606.93359375,104.4921875,0.0
78.9921875,-294.921875,-165.0390625,-73.73046875,-808.59375,174.31640625,0.0
78.99609375,-241.69921875,-144.04296875,-57.6171875,-898.92578125,169.921875,0.0
79.0,-211.9140625,-133.7890625,-38.0859375,-911.62109375,160.15625,0.0
79.00390625,-281.25,-189.94140625,-70.3125,-980.95703125,167.96875,0.0
79.0078125,-296.875,-199.21875,-69.82421875,-1000.0,129.39453125,0.0
79.01171875,-238.76953125,-169.921875,-56.640625,-998.53515625,104.4921875,0.0
79.015625,-204.58984375,-169.43359375,-37.109375,-1000.0,84.9609375,0.0
79.01953125,-179.19921875,-163.57421875,-10.7421875,-1000.0,69.82421875,0.0
79.0234375,-160.15625,-159.66796875,-46.875,-997.0703125,57.12890625,0.0
79.02734375,-131.34765625,-155.76171875,-47.36328125,-1000.0,67.3828125,0.0
79.03125,-97.65625,-139.16015625,6.34765625,-979.98046875,121.58203125,0.0
79.03515625,-98.6328125,-139.16015625,-0.48828125,-880.37109375,142.578125,0.0
79.0390625,-114.2578125,-144.53125,-23.92578125,-852.05078125,167.96875,0.0
79.04296875,-104.4921875,-139.16015625,-29.296875,-838.37890625,172.36328125,0.0
79.046875,-71.77734375,-126.953125,-41.50390625,-847.65625,157.71484375,0.0
79.05078125,-69.82421875,-116.2109375,-19.04296875,-960.9375,162.59765625,0.0
79.0546875,-64.94140625,-106.4453125,-15.13671875,-1000.0,124.51171875,0.0
79.05859375,-52.734375,-104.4921875,-25.87890625,-996.58203125,53.22265625,0.0
79.0625,-35.15625,-102.05078125,-20.99609375,-1000.0,-25.390625,0.0
79.06640625,1.953125,-81.0546875,-23.4375,-1000.0,-35.15625,0.0
79.0703125,-8.7890625,-74.70703125,-28.80859375,-1000.0,-72.75390625,0.0
79.07421875,-42.96875,-80.078125,-28.3203125,-1000.0,-151.3671875,0.0
79.078125,-28.80859375,-79.1015625,-39.0625,-1000.0,-165.52734375,0.0
79.08203125,-12.20703125,-77.1484375,-56.640625,-1000.0,-128.41796875,0.0
79.0859375,-59.08203125,-66.40625,-50.78125,-1000.0,-115.72265625,0.0
79.08984375,-63.96484375,-51.26953125,-53.22265625,-1000.0,6.8359375,0.0
79.09375,-30.2734375,-37.109375,-63.96484375,-1000.0,67.3828125,0.0
79.09765625,-27.34375,-36.62109375,-50.29296875,-1000.0,26.85546875,0.0
79.1015625,-45.41015625,-51.7578125,-45.8984375,-1000.0,26.3671875,0.0
79.10546875,-29.78515625,-43.45703125,-49.8046875,-1000.0,36.1328125,0.0
79.109375,-15.13671875,-37.109375,-50.78125,-1000.0,17.578125,0.0
79.11328125,-16.6015625,-37.59765625,-44.43359375,-1000.0,-27.34375,0.0
79.1171875,-9.27734375,-45.41015625,-50.29296875,-1000.0,-72.75390625,0.0
79.12109375,-26.85546875,-43.9453125,-79.1015625,-1000.0,-148.4375,0.0
79.125,-0.48828125,-27.34375,-70.3125,-1000.0,-120.60546875,0.0
79.12890625,29.78515625,-34.1796875,-46.38671875,-1000.0,-98.6328125,0.0
79.1328125,64.453125,-21.484375,-36.1328125,-1000.0,-50.29296875,0.0
79.13671875,46.875,-10.25390625,-32.71484375,-1000.0,11.23046875,0.0
79.140625,-30.2734375,-16.6015625,-45.8984375,-1000.0,-62.5,0.0
79.14453125,-23.4375,-15.13671875,-51.7578125,-1000.0,-119.62890625,0.0
79.1484375,-14.6484375,-23.4375,-41.50390625,-1000.0,-132.32421875,0.0
79.15234375,-26.3671875,-13.671875,-28.80859375,-1000.0,-41.50390625,0.0
79.15625,-33.203125,-4.39453125,-35.64453125,-1000.0,39.55078125,0.0
79.16015625,-40.52734375,-12.20703125,-37.59765625,-1000.0,28.3203125,0.0
79.1640625,-51.7578125,-24.90234375,-46.875,-1000.0,30.2734375,0.0
79.16796875,-60.546875,-25.390625,-56.15234375,-1000.0,54.6875,0.0
79.171875,-54.19921875,-16.11328125,-50.78125,-1000.0,57.12890625,0.0
79.17578125,-53.22265625,-13.18359375,-47.36328125,-1000.0,7.8125,0.0
79.1796875,-67.3828125,-18.06640625,-45.8984375,-1000.0,26.85546875,0.0
79.18359375,-70.3125,-21.97265625,-44.43359375,-998.046875,57.12890625,0.0
79.1875,-70.80078125,-22.4609375,-41.9921875,-1000.0,-2.44140625,0.0
79.19140625,-67.3828125,-13.671875,-36.62109375,-983.3984375,-6.34765625,0.0
79.1953125,-53.7109375,-0.9765625,-37.59765625,-911.62109375,68.359375,0.0
79.19921875,-65.4296875,-4.8828125,-56.15234375,-866.69921875,136.23046875,0.0
79.203125,-94.7265625,-8.7890625,-59.08203125,-778.3203125,69.3359375,0.0
79.20703125,-99.12109375,-22.4609375,-50.78125,-667.96875,-20.5078125,0.0
79.2109375,-76.171875,-34.66796875,-49.31640625,-601.5625,-52.734375,0.0
79.21484375,-59.08203125,-9.27734375,-40.52734375,-522.4609375,-16.11328125,0.0
79.21875,-91.796875,-3.90625,-50.29296875,-482.421875,-44.43359375,0.0
79.22265625,-93.26171875,-20.99609375,-68.84765625,-398.4375,-86.9140625,0.0
79.2265625,-111.328125,-19.53125,-54.6875,-284.66796875,-83.0078125,0.0
79.23046875,-103.02734375,-12.6953125,-45.8984375,-193.84765625,-61.03515625,0.0
79.234375,-53.7109375,-5.859375,-44.43359375,-101.5625,-35.15625,0.0
79.23828125,-83.49609375,-12.6953125,-43.45703125,-40.0390625,30.76171875,0.0
79.2421875,-88.8671875,-23.4375,-56.15234375,27.34375,24.90234375,0.0
79.24609375,-43.9453125,-18.5546875,-62.5,93.75,16.6015625,0.0
79.25,-58.10546875,-18.5546875,-50.78125,146.97265625,62.5,0.0
79.25390625,-93.26171875,-20.99609375,-39.0625,202.1484375,-12.20703125,0.0
79.2578125,-63.96484375,-25.87890625,-46.875,262.20703125,30.2734375,0.0
79.26171875,-69.3359375,-29.296875,-56.15234375,294.921875,73.2421875,0.0
79.265625,-92.28515625,-28.80859375,-58.59375,288.57421875,-15.13671875,0.0
79.26953125,-96.19140625,-30.2734375,-55.6640625,368.65234375,-115.234375,0.0
79.2734375,-113.28125,-29.78515625,-58.10546875,458.984375,-72.75390625,0.0
79.27734375,-92.28515625,-19.53125,-57.12890625,602.5390625,-12.20703125,0.0
79.28125,-81.54296875,-19.53125,-49.31640625,855.95703125,20.01953125,0.0
79.28515625,-86.42578125,-36.1328125,-62.98828125,972.16796875,16.11328125,0.0
79.2890625,-98.14453125,-32.2265625,-61.5234375,961.9140625,-53.22265625,0.0
79.29296875,-121.58203125,-22.94921875,-55.6640625,966.796875,-51.26953125,0.0
79.296875,-103.515625,-10.25390625,-56.15234375,968.75,-25.390625,0.0
79.30078125,-101.5625,-7.8125,-52.24609375,967.7734375,-96.6796875,0.0
79.3046875,-132.8125,-23.92578125,-52.24609375,967.7734375,-214.84375,0.0
79.30859375,-108.3984375,-37.59765625,-50.29296875,968.26171875,-255.37109375,0.0
79.3125,-87.40234375,-33.203125,-49.8046875,967.7734375,-171.875,0.0
79.31640625,-78.61328125,-19.53125,-45.8984375,968.26171875,-124.51171875,0.0
79.3203125,-100.09765625,-12.6953125,-46.38671875,966.30859375,-171.875,0.0
79.32421875,-107.421875,-26.3671875,-59.5703125,971.19140625,-137.6953125,0.0
79.328125,-124.51171875,-50.29296875,-55.17578125,954.1015625,-155.2734375,0.0
79.33203125,-116.2109375,-43.45703125,-44.43359375,922.8515625,-61.03515625,0.0
79.3359375,-107.91015625,-28.3203125,-48.33984375,932.12890625,37.109375,0.0
79.33984375,-133.30078125,-39.55078125,-52.24609375,921.38671875,1.953125,0.0
79.34375,-90.8203125,-45.41015625,-57.6171875,888.671875,25.87890625,0.0
79.34765625,-79.1015625,-25.390625,-62.98828125,855.46875,66.40625,0.0
79.3515625,-123.53515625,-20.99609375,-52.24609375,830.56640625,55.6640625,0.0
79.35546875,-96.19140625,-19.53125,-47.8515625,837.40234375,20.99609375,0.0
79.359375,-88.37890625,-12.6953125,-44.43359375,872.55859375,5.37109375,0.0
79.36328125,-124.0234375,-15.625,-44.43359375,847.16796875,-19.04296875,0.0
79.3671875,-137.20703125,-17.578125,-42.48046875,799.8046875,-63.96484375,0.0
79.37109375,-144.53125,-16.11328125,-33.69140625,799.31640625,-132.8125,0.0
79.375,-118.65234375,-14.6484375,-38.57421875,794.43359375,-97.65625,0.0
79.37890625,-124.0234375,-12.6953125,-42.48046875,772.4609375,-17.578125,0.0
79.3828125,-144.53125,-18.5546875,-45.8984375,739.74609375,-30.2734375,0.0
79.38671875,-118.1640625,-20.5078125,-47.8515625,731.93359375,-69.82421875,0.0
79.390625,-113.28125,-16.11328125,-49.8046875,758.30078125,-83.49609375,0.0
79.39453125,-110.3515625,-13.18359375,-41.015625,835.9375,-30.76171875,0.0
79.3984375,-100.5859375,-13.18359375,-35.64453125,921.38671875,-20.99609375,0.0
79.40234375,-102.5390625,-11.71875,-41.015625,958.49609375,-54.6875,0.0
79.40625,-89.35546875,-13.671875,-37.59765625,967.7734375,-38.57421875,0.0
79.41015625,-85.9375,-14.6484375,-36.1328125,966.796875,-97.65625,0.0
79.4140625,-120.60546875,-13.671875,-39.55078125,968.26171875,-104.00390625,0.0
79.41796875,-109.86328125,-17.08984375,-47.8515625,968.26171875,-45.8984375,0.0
79.421875,-57.6171875,-17.08984375,-46.38671875,968.26171875,-35.64453125,0.0
79.42578125,-69.82421875,-18.06640625,-42.48046875,966.796875,-20.01953125,0.0
79.4296875,-91.796875,-16.11328125,-42.48046875,967.28515625,-17.578125,0.0
79.43359375,-77.63671875,-13.18359375,-30.76171875,966.30859375,-63.96484375,0.0
79.4375,-80.078125,-28.3203125,-37.109375,911.1328125,-39.55078125,0.0
79.44140625,-94.7265625,-25.390625,-47.36328125,864.2578125,8.7890625,0.0
79.4453125,-119.140625,-16.6015625,-44.43359375,843.75,-7.32421875,0.0
79.44921875,-105.95703125,0.48828125,-29.78515625,809.08203125,-41.015625,0.0
79.453125,-87.40234375,3.90625,-22.4609375,771.97265625,14.16015625,0.0
79.45703125,-103.02734375,-16.11328125,-34.1796875,756.34765625,49.31640625,0.0
79.4609375,-127.44140625,-26.85546875,-43.45703125,777.34375,19.04296875,0.0
79.46484375,-152.83203125,-35.64453125,-50.78125,779.78515625,20.01953125,0.0
79.46875,-122.0703125,-35.64453125,-47.36328125,747.0703125,-5.37109375,0.0
79.47265625,-97.16796875,-26.85546875,-40.0390625,674.8046875,-55.6640625,0.0
79.4765625,-101.07421875,-17.08984375,-32.71484375,648.92578125,-108.88671875,0.0
79.48046875,-92.28515625,-19.53125,-37.59765625,616.2109375,-118.1640625,0.0
79.484375,-94.7265625,-24.4140625,-50.29296875,572.265625,-15.625,0.0
79.48828125,-104.4921875,-27.83203125,-49.31640625,502.44140625,-9.765625,0.0
79.4921875,-96.6796875,-21.97265625,-25.390625,308.59375,-61.5234375,0.0
79.49609375,-107.91015625,-13.18359375,-23.4375,176.26953125,-64.453125,0.0
79.5,-114.74609375,-24.90234375,-46.875,116.69921875,-104.00390625,0.0
79.50390625,-107.421875,-30.2734375,-51.26953125,96.19140625,-115.72265625,0.0
79.5078125,-115.234375,-33.69140625,-46.38671875,81.54296875,-132.8125,0.0
79.51171875,-107.91015625,-39.55078125,-41.50390625,73.73046875,-108.3984375,0.0
79.515625,-106.93359375,-34.66796875,-47.8515625,101.5625,-14.6484375,0.0
79.51953125,-117.1875,-26.85546875,-50.78125,89.84375,-19.04296875,0.0
79.5234375,-126.953125,-27.34375,-44.921875,58.10546875,-38.0859375,0.0
79.52734375,-110.3515625,-25.390625,-37.59765625,53.22265625,-18.5546875,0.0
79.53125,-82.03125,-20.99609375,-28.3203125,63.96484375,-43.45703125,0.0
79.53515625,-60.546875,-14.16015625,-16.6015625,75.68359375,-85.9375,0.0
79.5390625,-67.3828125,-10.25390625,-20.5078125,29.78515625,-58.10546875,0.0
79.54296875,-79.58984375,-24.4140625,-26.85546875,-10.25390625,28.3203125,0.0
79.546875,-53.7109375,-29.78515625,-23.92578125,47.36328125,53.22265625,0.0
79.55078125,-63.96484375,-21.484375,-28.3203125,129.39453125,13.18359375,0.0
79.5546875,-54.19921875,-17.578125,-24.90234375,138.671875,31.73828125,0.0
79.55859375,-37.109375,-14.16015625,-28.3203125,136.23046875,5.859375,0.0
79.5625,-52.734375,-17.08984375,-40.0390625,140.625,-47.36328125,0.0
79.56640625,-51.26953125,-17.08984375,-42.48046875,102.5390625,-37.109375,0.0
79.5703125,-24.90234375,-10.7421875,-27.34375,75.68359375,-74.70703125,0.0
79.57421875,-27.83203125,-23.92578125,-22.4609375,44.43359375,-66.40625,0.0
79.578125,-58.59375,-26.3671875,-32.2265625,11.71875,-20.5078125,0.0
79.58203125,-44.43359375,-18.5546875,-39.55078125,13.671875,2.44140625,0.0
79.5859375,-42.48046875,-31.25,-45.41015625,3.90625,-1.46484375,0.0
79.58984375,-58.59375,-33.69140625,-28.80859375,12.20703125,18.06640625,0.0
79.59375,-32.2265625,-26.3671875,-24.4140625,-2.44140625,121.09375,0.0
79.59765625,-7.32421875,-26.3671875,-34.66796875,-41.015625,99.609375,0.0
79.6015625,-37.109375,-27.34375,-33.203125,-35.64453125,19.04296875,0.0
79.60546875,-43.9453125,-30.76171875,-32.2265625,-51.26953125,7.32421875,0.0
79.609375,-21.97265625,-29.78515625,-32.71484375,-18.5546875,-84.47265625,0.0
79.61328125,-31.73828125,-26.3671875,-32.2265625,24.4140625,-78.61328125,0.0
79.6171875,-26.3671875,-27.34375,-28.3203125,52.734375,-56.15234375,0.0
79.62109375,-11.23046875,-24.4140625,-27.83203125,99.12109375,-130.37109375,0.0
79.625,-32.71484375,-27.34375,-35.64453125,122.55859375,-100.5859375,0.0
79.62890625,-19.53125,-26.3671875,-30.2734375,117.67578125,-42.48046875,0.0
79.6328125,-10.7421875,-23.92578125,-23.92578125,93.26171875,-57.6171875,0.0
79.63671875,-30.76171875,-25.390625,-36.62109375,77.63671875,-109.375,0.0
79.640625,-17.08984375,-14.6484375,-37.59765625,78.125,-47.36328125,0.0
79.64453125,-22.94921875,-15.13671875,-28.3203125,96.6796875,-56.15234375,0.0
79.6484375,-27.34375,-19.53125,-27.83203125,83.49609375,-81.54296875,0.0
79.65234375,-20.01953125,-9.765625,-25.390625,90.33203125,-30.76171875,0.0
79.65625,9.27734375,-7.32421875,-34.66796875,118.65234375,-5.37109375,0.0
79.66015625,-26.3671875,-11.23046875,-41.015625,122.55859375,-60.05859375,0.0
79.6640625,-37.109375,-11.23046875,-32.71484375,135.25390625,-71.2890625,0.0
79.66796875,-22.4609375,-16.11328125,-24.4140625,143.5546875,2.9296875,0.0
79.671875,-49.8046875,-11.71875,-16.6015625,137.6953125,4.8828125,0.0
79.67578125,1.46484375,2.44140625,-7.32421875,147.94921875,-46.38671875,0.0
79.6796875,-16.11328125,-3.90625,-0.48828125,176.26953125,-5.859375,0.0
79.68359375,-22.4609375,-7.8125,-20.99609375,188.4765625,85.44921875,0.0
79.6875,-1.46484375,-20.01953125,-45.8984375,162.59765625,35.64453125,0.0
79.69140625,-24.90234375,-33.69140625,-35.15625,166.9921875,-41.9921875,0.0
79.6953125,-22.4609375,-30.76171875,-29.296875,130.37109375,-22.94921875,0.0
79.69921875,-70.80078125,-25.87890625,-30.2734375,125.48828125,-3.41796875,0.0
79.703125,-42.96875,-25.87890625,-32.2265625,164.0625,-11.71875,0.0
79.70703125,4.39453125,-30.76171875,-34.66796875,186.5234375,11.23046875,0.0
79.7109375,-8.7890625,-26.3671875,-29.296875,205.56640625,-61.5234375,0.0
79.71484375,-21.484375,-15.13671875,-24.90234375,192.87109375,-64.453125,0.0
79.71875,-5.37109375,-7.8125,-15.13671875,168.9453125,-18.5546875,0.0
79.72265625,-10.7421875,-20.5078125,-32.71484375,146.484375,-26.3671875,0.0
79.7265625,-24.90234375,-31.73828125,-37.109375,149.4140625,-11.23046875,0.0
79.73046875,-25.390625,-20.5078125,-17.08984375,137.20703125,-37.59765625,0.0
79.734375,-44.921875,-11.71875,-19.53125,100.5859375,-49.8046875,0.0
79.73828125,-41.9921875,-22.4609375,-35.15625,70.3125,-50.78125,0.0
79.7421875,-27.34375,-29.296875,-39.55078125,27.34375,-75.68359375,0.0
79.74609375,-18.5546875,-25.87890625,-31.73828125,4.8828125,-46.38671875,0.0
79.75,-31.25,-30.76171875,-23.92578125,-10.7421875,-15.625,0.0
79.75390625,-58.10546875,-25.87890625,-19.53125,-35.64453125,-48.828125,0.0
79.7578125,-31.73828125,-7.32421875,-13.18359375,-39.55078125,-47.36328125,0.0
79.76171875,-17.08984375,-15.625,-24.4140625,-64.453125,-52.24609375,0.0
79.765625,-33.69140625,-35.15625,-43.9453125,-58.10546875,-35.15625,0.0
79.76953125,0.0,-31.25,-40.0390625,15.625,-29.296875,0.0
79.7734375,0.0,-15.13671875,-32.2265625,42.96875,-65.4296875,0.0
79.77734375,-41.015625,-10.25390625,-38.0859375,40.52734375,-4.8828125,0.0
79.78125,-30.76171875,-13.671875,-33.69140625,61.5234375,50.78125,0.0
79.78515625,-12.6953125,-16.11328125,-28.80859375,83.984375,-41.015625,0.0
79.7890625,-17.578125,-24.90234375,-30.2734375,81.0546875,-131.34765625,0.0
79.79296875,-45.41015625,-20.5078125,-23.92578125,113.28125,-102.05078125,0.0
79.796875,-36.62109375,-12.20703125,-18.5546875,114.74609375,-1.46484375,0.0
79.80078125,-45.41015625,-26.85546875,-17.08984375,74.70703125,-55.17578125,0.0
79.8046875,-84.9609375,-29.78515625,-20.01953125,-67.87109375,-117.1875,0.0
79.80859375,-54.19921875,-16.11328125,-23.92578125,-256.8359375,-112.79296875,0.0
79.8125,-36.1328125,-20.99609375,-23.92578125,-313.4765625,-62.98828125,0.0
79.81640625,-22.94921875,-23.4375,-23.4375,-307.12890625,-0.9765625,0.0
79.8203125,-37.109375,-23.92578125,-30.76171875,-279.78515625,-57.12890625,0.0
79.82421875,-61.5234375,-24.90234375,-29.78515625,-262.20703125,2.44140625,0.0
79.828125,-38.57421875,-23.4375,-22.94921875,-278.3203125,35.15625,0.0
79.83203125,-33.203125,-28.3203125,-29.296875,-245.1171875,-25.87890625,0.0
79.8359375,-15.13671875,-24.4140625,-28.3203125,-202.63671875,-11.71875,0.0
79.83984375,-20.01953125,-20.5078125,-26.85546875,-187.01171875,-2.9296875,0.0
79.84375,-27.34375,-23.92578125,-34.1796875,-187.98828125,-65.91796875,0.0
79.84765625,-45.8984375,-27.83203125,-35.15625,-198.73046875,-98.14453125,0.0
79.8515625,-41.9921875,-20.01953125,-22.4609375,-175.78125,-66.40625,0.0
79.85546875,-10.7421875,-16.11328125,-18.06640625,-132.32421875,47.8515625,0.0
79.859375,-33.203125,-25.87890625,-25.87890625,-100.5859375,62.5,0.0
79.86328125,-24.4140625,-24.90234375,-26.3671875,-120.1171875,-38.57421875,0.0
79.8671875,-29.296875,-22.94921875,-12.20703125,-129.8828125,-34.66796875,0.0
79.87109375,-17.578125,-8.7890625,0.48828125,-87.40234375,42.96875,0.0
79.875,1.46484375,-7.8125,-12.20703125,-83.49609375,71.2890625,0.0
79.87890625,-21.97265625,-28.3203125,-25.390625,-116.2109375,51.7578125,0.0
79.8828125,-62.98828125,-32.71484375,-25.390625,-116.69921875,24.90234375,0.0
79.88671875,-60.546875,-25.87890625,-24.90234375,-141.6015625,29.78515625,0.0
79.890625,-26.85546875,-26.3671875,-23.4375,-236.328125,11.23046875,0.0
79.89453125,-13.671875,-33.203125,-27.34375,-317.87109375,-25.390625,0.0
79.8984375,-4.8828125,-33.203125,-24.4140625,-353.515625,-32.71484375,0.0
79.90234375,-12.20703125,-24.90234375,-26.3671875,-350.09765625,-63.4765625,0.0
79.90625,-22.4609375,-30.2734375,-31.73828125,-340.33203125,-66.89453125,0.0
79.91015625,-18.5546875,-36.1328125,-28.80859375,-335.44921875,9.27734375,0.0
79.9140625,-32.2265625,-39.55078125,-41.50390625,-322.265625,8.7890625,0.0
79.91796875,-30.76171875,-32.2265625,-48.828125,-315.4296875,-24.4140625,0.0
79.921875,-15.13671875,-24.4140625,-44.43359375,-279.296875,-48.828125,0.0
79.92578125,-14.16015625,-30.76171875,-34.1796875,-229.00390625,-76.171875,0.0
79.9296875,-14.6484375,-29.78515625,-22.94921875,-202.1484375,-20.5078125,0.0
79.93359375,-0.9765625,-20.01953125,-25.87890625,-163.57421875,-20.01953125,0.0
79.9375,5.37109375,-17.08984375,-30.2734375,-145.01953125,6.8359375,0.0
79.94140625,2.9296875,-21.484375,-30.76171875,-103.02734375,38.57421875,0.0
79.9453125,-36.1328125,-29.296875,-32.71484375,-29.296875,-37.59765625,0.0
79.94921875,-26.85546875,-25.87890625,-32.71484375,51.7578125,-81.54296875,0.0
79.953125,17.578125,-20.99609375,-36.1328125,126.46484375,-5.37109375,0.0
79.95703125,9.27734375,-25.390625,-47.8515625,133.7890625,-6.8359375,0.0
79.9609375,5.37109375,-38.57421875,-51.7578125,123.53515625,-163.57421875,0.0
79.96484375,-3.90625,-44.921875,-47.8515625,121.09375,-185.05859375,0.0
79.96875,0.0,-35.64453125,-46.875,107.421875,-190.91796875,0.0
79.97265625,-3.41796875,-27.34375,-39.0625,120.1171875,-160.15625,0.0
79.9765625,11.23046875,-25.87890625,-33.69140625,145.5078125,17.08984375,0.0
79.98046875,18.06640625,-24.90234375,-27.83203125,157.71484375,75.68359375,0.0
79.984375,11.23046875,-20.01953125,-29.78515625,150.390625,76.171875,0.0
79.98828125,1.953125,-23.92578125,-37.59765625,146.484375,108.3984375,0.0
79.9921875,5.859375,-26.3671875,-36.1328125,171.38671875,80.56640625,0.0
79.99609375,35.15625,-19.04296875,-36.62109375,207.51953125,20.01953125,0.0
80.0,8.7890625,-23.4375,-33.203125,234.375,-47.36328125,0.0
80.00390625,-1.46484375,-29.78515625,-31.25,240.72265625,-36.62109375,1.0
80.0078125,22.4609375,-33.203125,-29.78515625,251.46484375,-12.20703125,1.0
80.01171875,4.39453125,-30.2734375,-24.90234375,242.1875,6.8359375,1.0
80.015625,6.8359375,-22.4609375,-28.3203125,228.515625,-0.48828125,1.0
80.01953125,19.04296875,-20.5078125,-30.76171875,235.3515625,-9.27734375,1.0
80.0234375,5.859375,-26.3671875,-31.73828125,215.8203125,0.48828125,1.0
80.02734375,-6.34765625,-30.76171875,-29.78515625,211.9140625,-52.734375,1.0
80.03125,0.0,-23.92578125,-23.4375,255.859375,-97.65625,1.0
80.03515625,14.6484375,-23.4375,-22.94921875,268.06640625,-105.95703125,1.0
80.0390625,1.953125,-20.01953125,-28.80859375,269.53125,-119.140625,1.0
80.04296875,-23.4375,-19.04296875,-28.80859375,295.41015625,-106.93359375,1.0
80.046875,-6.8359375,-20.01953125,-22.94921875,285.64453125,-54.6875,1.0
80.05078125,9.27734375,-15.13671875,-15.625,267.08984375,-27.34375,1.0
80.0546875,-3.41796875,-17.08984375,-19.53125,277.83203125,-0.48828125,1.0
80.05859375,-2.44140625,-20.5078125,-27.83203125,304.6875,-10.25390625,1.0
80.0625,6.34765625,-19.53125,-30.76171875,301.26953125,-17.08984375,1.0
80.06640625,2.9296875,-18.5546875,-23.92578125,312.5,36.1328125,1.0
80.0703125,-17.08984375,-26.3671875,-14.6484375,320.3125,17.578125,1.0
80.07421875,-30.2734375,-28.3203125,-23.4375,314.94140625,6.8359375,1.0
80.078125,-23.4375,-23.4375,-32.71484375,290.52734375,10.25390625,1.0
80.08203125,-29.296875,-32.71484375,-36.1328125,271.484375,-42.96875,1.0
80.0859375,-25.390625,-39.0625,-36.1328125,279.296875,-28.3203125,1.0
80.08984375,-16.11328125,-28.80859375,-21.484375,295.41015625,48.33984375,1.0
80.09375,-10.25390625,-18.5546875,-11.71875,303.22265625,20.5078125,1.0
80.09765625,-42.96875,-37.109375,-24.90234375,269.53125,-9.27734375,1.0
80.1015625,-54.19921875,-43.45703125,-32.2265625,275.390625,41.015625,1.0
80.10546875,-20.01953125,-26.3671875,-26.85546875,314.94140625,-135.25390625,1.0
80.109375,-18.06640625,-32.2265625,-23.92578125,311.5234375,-305.17578125,1.0
80.11328125,-27.83203125,-41.015625,-19.04296875,283.69140625,-167.96875,1.0
80.1171875,-30.76171875,-38.57421875,-16.6015625,274.4140625,-67.87109375,1.0
80.12109375,-17.578125,-25.87890625,-11.71875,304.6875,-15.625,1.0
80.125,-31.73828125,-25.390625,-12.20703125,312.01171875,25.87890625,1.0
80.12890625,-41.015625,-33.69140625,-19.53125,335.44921875,-20.5078125,1.0
80.1328125,-27.83203125,-33.203125,-18.5546875,352.5390625,-62.5,1.0
80.13671875,-15.13671875,-26.3671875,-19.53125,362.79296875,-20.01953125,1.0
80.140625,-4.39453125,-24.90234375,-22.4609375,401.85546875,-67.3828125,1.0
80.14453125,-28.80859375,-38.57421875,-30.2734375,400.87890625,-54.6875,1.0
80.1484375,-28.80859375,-42.96875,-36.1328125,408.69140625,-49.8046875,1.0
80.15234375,-17.578125,-29.78515625,-26.85546875,411.1328125,-47.36328125,1.0
80.15625,-33.203125,-26.85546875,-27.83203125,440.91796875,19.53125,1.0
80.16015625,-33.69140625,-31.73828125,-32.2265625,450.68359375,51.7578125,1.0
80.1640625,-29.296875,-37.109375,-31.25,442.87109375,-21.484375,1.0
80.16796875,-25.390625,-41.50390625,-28.80859375,444.3359375,-86.42578125,1.0
80.171875,-38.57421875,-35.64453125,-28.3203125,421.38671875,-82.03125,1.0
80.17578125,-39.0625,-30.76171875,-32.71484375,374.0234375,-59.08203125,1.0
80.1796875,-28.80859375,-24.4140625,-22.4609375,341.30859375,-59.08203125,1.0
80.18359375,-18.06640625,-14.6484375,-18.06640625,348.14453125,-61.5234375,1.0
80.1875,-11.23046875,-25.390625,-32.2265625,288.57421875,-6.34765625,1.0
80.19140625,-24.90234375,-36.62109375,-38.57421875,258.7890625,-9.765625,1.0
80.1953125,-18.06640625,-34.66796875,-33.69140625,261.23046875,-4.8828125,1.0
80.19921875,-41.9921875,-32.71484375,-27.83203125,242.67578125,-49.8046875,1.0
80.203125,-44.43359375,-28.80859375,-28.80859375,222.65625,-132.32421875,1.0
80.20703125,-9.27734375,-30.2734375,-34.66796875,192.87109375,-81.54296875,1.0
80.2109375,-40.52734375,-28.80859375,-31.73828125,165.0390625,14.6484375,1.0
80.21484375,-49.31640625,-19.04296875,-31.25,157.71484375,17.578125,1.0
80.21875,-16.6015625,-25.390625,-28.3203125,173.33984375,-63.96484375,1.0
80.22265625,-5.37109375,-33.69140625,-31.73828125,163.0859375,-103.02734375,1.0
80.2265625,-15.13671875,-15.625,-26.85546875,165.0390625,-8.7890625,1.0
80.23046875,-28.80859375,-7.32421875,-19.53125,170.8984375,36.1328125,1.0
80.234375,-35.15625,-28.3203125,-35.15625,149.90234375,-40.52734375,1.0
80.23828125,-40.52734375,-36.62109375,-39.55078125,139.16015625,-20.5078125,1.0
80.2421875,-13.18359375,-20.01953125,-20.5078125,153.80859375,34.66796875,1.0
80.24609375,-17.08984375,-19.04296875,-11.23046875,171.875,42.96875,1.0
80.25,-30.76171875,-35.64453125,-26.3671875,159.66796875,46.38671875,1.0
80.25390625,-28.80859375,-37.109375,-35.64453125,132.32421875,19.53125,1.0
80.2578125,-43.9453125,-34.1796875,-32.2265625,87.890625,1.46484375,1.0
80.26171875,-35.15625,-23.92578125,-26.85546875,76.171875,56.15234375,1.0
80.265625,-22.4609375,-32.71484375,-31.25,58.59375,42.96875,1.0
80.26953125,-17.08984375,-35.64453125,-23.92578125,30.76171875,-41.9921875,1.0
80.2734375,-13.671875,-23.92578125,-17.08984375,22.94921875,-97.16796875,1.0
80.27734375,-16.6015625,-25.87890625,-26.3671875,19.04296875,-60.546875,1.0
80.28125,-24.4140625,-32.71484375,-33.69140625,19.53125,39.55078125,1.0
80.28515625,-20.99609375,-26.85546875,-27.34375,17.578125,48.33984375,1.0
80.2890625,-23.92578125,-18.5546875,-6.34765625,49.31640625,-63.96484375,1.0
80.29296875,-32.2265625,-21.97265625,-14.6484375,58.59375,-43.45703125,1.0
80.296875,-22.94921875,-19.04296875,-27.83203125,71.77734375,26.85546875,1.0
80.30078125,-22.4609375,-20.01953125,-22.94921875,95.21484375,26.3671875,1.0
80.3046875,-35.15625,-21.97265625,-18.5546875,98.6328125,93.75,1.0
80.30859375,-29.296875,-22.94921875,-20.5078125,105.95703125,64.94140625,1.0
80.3125,-30.2734375,-27.34375,-25.390625,130.37109375,11.23046875,1.0
80.31640625,-28.3203125,-25.87890625,-31.25,132.32421875,17.578125,1.0
80.3203125,-10.25390625,-26.3671875,-37.59765625,124.0234375,7.8125,1.0
80.32421875,-31.73828125,-31.73828125,-34.1796875,134.765625,-38.0859375,1.0
80.328125,-29.296875,-33.69140625,-31.25,105.46875,-165.52734375,1.0
80.33203125,-3.41796875,-34.1796875,-38.0859375,99.12109375,-144.04296875,1.0
80.3359375,-28.3203125,-29.78515625,-30.76171875,100.09765625,-76.66015625,1.0
80.33984375,-64.94140625,-34.66796875,-19.53125,98.6328125,-40.0390625,1.0
80.34375,-32.2265625,-37.109375,-28.80859375,103.02734375,10.7421875,1.0
80.34765625,-20.99609375,-32.2265625,-30.76171875,129.8828125,-114.74609375,1.0
80.3515625,-62.98828125,-33.69140625,-23.4375,148.4375,-119.62890625,1.0
80.35546875,-60.05859375,-29.296875,-32.71484375,121.09375,-24.90234375,1.0
80.359375,-14.16015625,-29.78515625,-38.57421875,97.65625,-60.546875,1.0
80.36328125,-31.25,-34.1796875,-33.203125,83.984375,-62.98828125,1.0
80.3671875,-33.69140625,-29.296875,-24.90234375,77.1484375,-23.92578125,1.0
80.37109375,-41.015625,-35.15625,-25.87890625,62.5,-67.3828125,1.0
80.375,-38.0859375,-38.57421875,-34.1796875,75.1953125,-36.1328125,1.0
80.37890625,-29.296875,-28.80859375,-33.69140625,108.3984375,-24.4140625,1.0
80.3828125,-41.015625,-32.71484375,-33.203125,125.0,-11.71875,1.0
80.38671875,-38.57421875,-32.2265625,-34.1796875,157.71484375,-11.23046875,1.0
80.390625,-30.2734375,-24.4140625,-30.2734375,188.96484375,-32.71484375,1.0
80.39453125,-16.11328125,-25.390625,-21.97265625,187.98828125,-59.08203125,1.0
80.3984375,-14.16015625,-22.94921875,-23.92578125,176.7578125,-17.578125,1.0
80.40234375,-25.390625,-21.484375,-32.2265625,175.29296875,33.203125,1.0
80.40625,-53.22265625,-32.71484375,-36.1328125,161.62109375,-48.33984375,1.0
80.41015625,-38.0859375,-24.90234375,-26.3671875,142.578125,-81.0546875,1.0
80.4140625,-4.8828125,-13.18359375,-27.83203125,122.0703125,-88.8671875,1.0
80.41796875,-17.08984375,-20.99609375,-41.50390625,103.02734375,-87.40234375,1.0
80.421875,-7.32421875,-24.4140625,-35.15625,101.5625,-118.65234375,1.0
80.42578125,1.953125,-30.2734375,-29.296875,83.984375,-149.90234375,1.0
80.4296875,-22.94921875,-35.64453125,-28.3203125,90.33203125,-70.3125,1.0
80.43359375,-18.06640625,-26.3671875,-24.90234375,127.9296875,-8.30078125,1.0
80.4375,-29.78515625,-25.87890625,-26.85546875,136.71875,-46.875,1.0
80.44140625,-44.921875,-28.80859375,-27.34375,136.23046875,-93.26171875,1.0
80.4453125,-42.96875,-38.0859375,-36.1328125,150.87890625,-27.83203125,1.0
80.44921875,-64.453125,-42.48046875,-35.15625,166.9921875,60.546875,1.0
80.453125,-50.78125,-37.59765625,-23.92578125,187.01171875,68.84765625,1.0
80.45703125,-30.2734375,-35.64453125,-28.3203125,181.640625,23.92578125,1.0
80.4609375,-51.7578125,-38.0859375,-33.69140625,154.78515625,22.4609375,1.0
80.46484375,-71.2890625,-45.41015625,-31.25,146.484375,35.64453125,1.0
80.46875,-56.640625,-41.9921875,-22.4609375,140.13671875,-25.390625,1.0
80.47265625,-60.05859375,-33.69140625,-20.99609375,147.94921875,41.9921875,1.0
80.4765625,-76.171875,-35.15625,-25.87890625,178.7109375,74.70703125,1.0
80.48046875,-61.03515625,-43.9453125,-33.203125,192.3828125,-27.83203125,1.0
80.484375,-51.7578125,-43.45703125,-36.62109375,194.82421875,-68.359375,1.0
80.48828125,-46.38671875,-45.41015625,-37.59765625,162.59765625,-116.2109375,1.0
80.4921875,-39.55078125,-42.96875,-31.73828125,148.92578125,-153.3203125,1.0
80.49609375,-44.921875,-32.71484375,-31.73828125,171.875,-126.953125,1.0
80.5,-44.921875,-33.203125,-38.0859375,186.5234375,-91.30859375,1.0
80.50390625,-39.0625,-29.78515625,-33.203125,163.0859375,-80.56640625,1.0
80.5078125,-49.31640625,-27.34375,-25.390625,133.30078125,-73.73046875,1.0
80.51171875,-40.0390625,-24.4140625,-20.5078125,156.25,-12.20703125,1.0
80.515625,-33.203125,-26.3671875,-27.34375,164.0625,2.9296875,1.0
80.51953125,-42.96875,-31.73828125,-36.1328125,160.15625,4.39453125,1.0
80.5234375,-47.8515625,-34.1796875,-39.0625,173.828125,38.57421875,1.0
80.52734375,-46.875,-36.1328125,-41.50390625,179.19921875,61.5234375,1.0
80.53125,-40.0390625,-29.296875,-43.45703125,169.921875,20.5078125,1.0
80.53515625,-37.59765625,-29.296875,-33.69140625,161.1328125,-1.953125,1.0
80.5390625,-24.90234375,-35.15625,-28.3203125,147.4609375,-2.9296875,1.0
80.54296875,-24.4140625,-33.203125,-28.80859375,140.13671875,28.80859375,1.0
80.546875,-49.31640625,-46.38671875,-31.73828125,161.1328125,1.46484375,1.0
80.55078125,-52.734375,-48.33984375,-29.296875,210.44921875,-60.05859375,1.0
80.5546875,-47.8515625,-33.203125,-27.83203125,234.375,-20.01953125,1.0
80.55859375,-19.04296875,-22.94921875,-33.69140625,223.14453125,-44.921875,1.0
80.5625,-19.04296875,-28.80859375,-35.64453125,208.49609375,-90.8203125,1.0
80.56640625,-39.0625,-40.52734375,-41.9921875,250.0,-63.96484375,1.0
80.5703125,-19.04296875,-38.57421875,-34.66796875,324.21875,-33.69140625,1.0
80.57421875,5.37109375,-27.34375,-17.578125,318.359375,0.0,1.0
80.578125,9.27734375,-20.99609375,-16.11328125,339.35546875,-3.90625,1.0
80.58203125,0.9765625,-36.1328125,-25.87890625,353.515625,-33.69140625,1.0
80.5859375,-11.71875,-44.43359375,-36.62109375,342.7734375,-97.16796875,1.0
80.58984375,-8.30078125,-36.62109375,-34.66796875,355.95703125,-121.09375,1.0
80.59375,3.41796875,-32.71484375,-28.3203125,347.65625,-46.875,1.0
80.59765625,-4.39453125,-32.2265625,-34.66796875,324.21875,-39.55078125,1.0
80.6015625,-12.20703125,-27.34375,-32.71484375,304.6875,-145.5078125,1.0
80.60546875,-9.27734375,-24.90234375,-31.25,286.1328125,-145.5078125,1.0
80.609375,-20.01953125,-23.4375,-34.66796875,246.58203125,-62.98828125,1.0
80.61328125,-11.71875,-21.97265625,-31.73828125,233.3984375,-83.0078125,1.0
80.6171875,12.20703125,-24.4140625,-34.66796875,207.03125,-101.5625,1.0
80.62109375,0.0,-25.390625,-40.52734375,168.9453125,-61.5234375,1.0
80.625,-7.32421875,-31.25,-45.41015625,161.1328125,28.80859375,1.0
80.62890625,-7.32421875,-28.80859375,-38.0859375,141.6015625,-33.69140625,1.0
80.6328125,-7.8125,-20.99609375,-33.69140625,110.3515625,-92.7734375,1.0
80.63671875,5.859375,-10.7421875,-34.1796875,99.12109375,-52.24609375,1.0
80.640625,-5.859375,-22.4609375,-37.59765625,61.5234375,-67.3828125,1.0
80.64453125,-30.2734375,-31.73828125,-45.8984375,62.01171875,-108.3984375,1.0
80.6484375,-22.4609375,-28.3203125,-38.57421875,86.42578125,-76.171875,1.0
80.65234375,-16.11328125,-27.83203125,-33.69140625,77.1484375,20.5078125,1.0
80.65625,-20.99609375,-23.92578125,-40.52734375,61.5234375,16.11328125,1.0
80.66015625,-18.06640625,-24.4140625,-33.69140625,55.17578125,-99.609375,1.0
80.6640625,-2.9296875,-26.85546875,-30.76171875,104.00390625,-196.77734375,1.0
80.66796875,2.44140625,-27.83203125,-25.390625,99.12109375,-100.09765625,1.0
80.671875,-22.94921875,-29.78515625,-17.08984375,57.6171875,-46.875,1.0
80.67578125,-16.11328125,-18.5546875,-21.97265625,49.8046875,-86.42578125,1.0
80.6796875,-11.23046875,-14.16015625,-24.4140625,62.01171875,-106.93359375,1.0
80.68359375,-41.50390625,-24.90234375,-31.73828125,76.66015625,-95.21484375,1.0
80.6875,-43.45703125,-29.78515625,-37.109375,96.6796875,-64.453125,1.0
80.69140625,-37.109375,-24.4140625,-36.62109375,109.375,-56.640625,1.0
80.6953125,-18.5546875,-15.625,-38.57421875,109.86328125,-112.3046875,1.0
80.69921875,0.48828125,-16.11328125,-35.64453125,102.5390625,-106.4453125,1.0
80.703125,-15.625,-17.08984375,-32.71484375,95.703125,7.32421875,1.0
80.70703125,-30.76171875,-23.4375,-32.2265625,87.890625,36.1328125,1.0
80.7109375,-23.4375,-26.85546875,-30.76171875,96.19140625,48.828125,1.0
80.71484375,-17.578125,-24.90234375,-31.73828125,88.8671875,93.75,1.0
80.71875,-16.11328125,-18.5546875,-35.15625,62.98828125,50.78125,1.0
80.72265625,-22.94921875,-17.08984375,-32.71484375,56.15234375,34.66796875,1.0
80.7265625,-45.8984375,-30.2734375,-28.80859375,22.94921875,52.24609375,1.0
80.73046875,-57.12890625,-35.64453125,-24.4140625,-4.39453125,25.87890625,1.0
80.734375,-39.55078125,-30.2734375,-29.78515625,-3.41796875,-7.32421875,1.0
80.73828125,-9.765625,-26.3671875,-41.015625,25.87890625,-62.98828125,1.0
80.7421875,-25.87890625,-22.4609375,-45.41015625,41.50390625,-75.1953125,1.0
80.74609375,-38.0859375,-23.92578125,-35.64453125,35.64453125,-100.5859375,1.0
80.75,-23.92578125,-23.92578125,-20.5078125,31.73828125,-56.15234375,1.0
80.75390625,-5.37109375,-20.01953125,-22.4609375,23.92578125,-97.65625,1.0
80.7578125,-21.97265625,-22.4609375,-31.73828125,56.15234375,-123.53515625,1.0
80.76171875,-68.359375,-28.3203125,-28.3203125,50.78125,-53.7109375,1.0
80.765625,-76.66015625,-40.0390625,-38.0859375,6.34765625,-58.59375,1.0
80.76953125,-57.12890625,-41.50390625,-37.109375,0.0,-77.1484375,1.0
80.7734375,-59.5703125,-31.73828125,-16.11328125,33.69140625,-70.80078125,1.0
80.77734375,-49.8046875,-30.76171875,-17.578125,62.5,-45.41015625,1.0
80.78125,-32.71484375,-30.76171875,-27.34375,74.70703125,-44.43359375,1.0
80.78515625,-40.0390625,-31.25,-31.25,86.9140625,-20.99609375,1.0
80.7890625,-54.6875,-34.1796875,-28.3203125,69.82421875,-64.94140625,1.0
80.79296875,-48.828125,-29.78515625,-23.4375,50.29296875,-55.17578125,1.0
80.796875,-32.71484375,-21.484375,-23.92578125,88.8671875,29.78515625,1.0
80.80078125,-17.08984375,-9.765625,-10.25390625,152.34375,10.25390625,1.0
80.8046875,-34.1796875,-18.5546875,-15.13671875,129.8828125,-35.64453125,1.0
80.80859375,-50.29296875,-38.0859375,-24.4140625,103.02734375,-74.21875,1.0
80.8125,-47.8515625,-35.64453125,-12.20703125,115.234375,-48.33984375,1.0
80.81640625,-49.8046875,-19.53125,-7.8125,132.8125,91.30859375,1.0
80.8203125,-43.9453125,-17.578125,-23.92578125,143.06640625,137.6953125,1.0
80.82421875,-50.29296875,-31.73828125,-36.1328125,112.79296875,74.21875,1.0
80.828125,-61.03515625,-35.64453125,-31.73828125,109.375,32.2265625,1.0
80.83203125,-37.109375,-25.87890625,-32.2265625,135.25390625,43.45703125,1.0
80.8359375,-14.6484375,-20.99609375,-29.78515625,130.859375,41.9921875,1.0
80.83984375,-26.85546875,-23.4375,-29.296875,125.9765625,-11.71875,1.0
80.84375,-39.0625,-35.15625,-32.71484375,142.08984375,-85.9375,1.0
80.84765625,-38.57421875,-36.62109375,-30.2734375,120.1171875,-67.3828125,1.0
80.8515625,-40.52734375,-31.25,-25.87890625,88.8671875,60.05859375,1.0
80.85546875,-45.41015625,-33.69140625,-25.87890625,78.61328125,23.4375,1.0
80.859375,-30.76171875,-33.69140625,-30.2734375,63.4765625,-31.73828125,1.0
80.86328125,-36.1328125,-41.015625,-29.78515625,40.52734375,-31.25,1.0
80.8671875,-37.109375,-40.52734375,-24.4140625,46.875,4.39453125,1.0
80.87109375,-40.0390625,-30.2734375,-25.390625,42.48046875,33.69140625,1.0
80.875,-51.7578125,-34.1796875,-26.85546875,23.92578125,-27.83203125,1.0
80.87890625,-48.828125,-42.96875,-26.85546875,41.9921875,-81.54296875,1.0
80.8828125,-44.43359375,-40.52734375,-35.15625,47.8515625,-96.19140625,1.0
80.88671875,-41.50390625,-36.62109375,-41.50390625,23.92578125,-53.22265625,1.0
80.890625,-51.26953125,-37.109375,-40.52734375,22.94921875,-74.21875,1.0
80.89453125,-32.2265625,-31.73828125,-36.62109375,42.48046875,-151.85546875,1.0
80.8984375,-15.625,-40.0390625,-39.0625,29.78515625,-133.7890625,1.0
80.90234375,-25.87890625,-45.41015625,-39.0625,39.0625,-58.59375,1.0
80.90625,-46.875,-35.15625,-36.1328125,20.01953125,-82.03125,1.0
80.91015625,-46.38671875,-36.62109375,-34.1796875,5.859375,-89.35546875,1.0
80.9140625,-34.66796875,-36.62109375,-27.34375,33.69140625,-51.7578125,1.0
80.91796875,-49.31640625,-34.66796875,-27.34375,33.69140625,-8.7890625,1.0
80.921875,-64.94140625,-39.0625,-35.64453125,16.11328125,35.64453125,1.0
80.92578125,-59.5703125,-44.43359375,-40.52734375,-1.953125,5.37109375,1.0
80.9296875,-36.62109375,-36.62109375,-32.71484375,1.953125,-18.06640625,1.0
80.93359375,-21.484375,-16.11328125,-23.92578125,5.859375,-64.94140625,1.0
80.9375,-24.90234375,-21.484375,-27.34375,-20.99609375,-57.12890625,1.0
80.94140625,-29.78515625,-33.203125,-29.296875,-51.7578125,-62.5,1.0
80.9453125,-25.87890625,-34.66796875,-35.15625,-58.10546875,-67.3828125,1.0
80.94921875,-32.71484375,-35.15625,-37.109375,-61.5234375,-5.37109375,1.0
80.953125,-44.43359375,-29.78515625,-30.2734375,-57.6171875,41.9921875,1.0
80.95703125,-44.43359375,-30.2734375,-34.1796875,-56.15234375,-1.46484375,1.0
80.9609375,-34.1796875,-35.64453125,-41.9921875,-65.4296875,-13.671875,1.0
80.96484375,-33.203125,-38.57421875,-37.59765625,-68.84765625,7.32421875,1.0
80.96875,-40.52734375,-39.0625,-30.76171875,-48.828125,-32.71484375,1.0
80.97265625,-43.45703125,-38.0859375,-30.76171875,-19.53125,-51.7578125,1.0
80.9765625,-53.22265625,-34.1796875,-34.1796875,-7.8125,-84.47265625,1.0
80.98046875,-48.33984375,-31.73828125,-32.2265625,12.6953125,-27.34375,1.0
80.984375,-35.15625,-30.2734375,-37.59765625,15.13671875,41.9921875,1.0
80.98828125,-47.36328125,-40.0390625,-41.9921875,-19.53125,60.05859375,1.0
80.9921875,-35.64453125,-31.73828125,-20.99609375,-24.90234375,59.5703125,1.0
80.99609375,-16.6015625,-19.53125,-17.08984375,-22.4609375,-3.90625,1.0
81.0,-39.0625,-26.3671875,-33.203125,-52.734375,-13.18359375,1.0
81.00390625,-34.66796875,-25.87890625,-38.57421875,-50.78125,-37.109375,1.0
81.0078125,-27.83203125,-41.50390625,-36.62109375,-51.7578125,-78.125,1.0
81.01171875,-41.50390625,-46.875,-35.15625,-66.40625,-94.7265625,1.0
81.015625,-49.8046875,-31.73828125,-38.0859375,-92.28515625,-134.765625,1.0
81.01953125,-49.8046875,-27.34375,-35.64453125,-118.1640625,-66.40625,1.0
81.0234375,-52.24609375,-31.25,-31.25,-133.30078125,18.06640625,1.0
81.02734375,-44.43359375,-31.25,-22.4609375,-128.90625,31.73828125,1.0
81.03125,-47.36328125,-30.2734375,-23.92578125,-119.62890625,13.18359375,1.0
81.03515625,-39.55078125,-24.90234375,-27.34375,-115.72265625,-11.23046875,1.0
81.0390625,-31.25,-18.5546875,-27.83203125,-101.5625,-95.703125,1.0
81.04296875,-34.66796875,-20.01953125,-26.3671875,-96.6796875,-95.21484375,1.0
81.046875,-24.4140625,-19.04296875,-22.94921875,-89.35546875,3.41796875,1.0
81.05078125,-22.4609375,-20.5078125,-22.4609375,-77.63671875,-46.38671875,1.0
81.0546875,-33.69140625,-16.6015625,-26.85546875,-60.05859375,-37.109375,1.0
81.05859375,-20.5078125,-16.6015625,-33.69140625,-63.96484375,2.44140625,1.0
81.0625,-6.8359375,-21.484375,-35.15625,-63.96484375,-57.12890625,1.0
81.06640625,-18.5546875,-16.11328125,-27.34375,-52.734375,-105.46875,1.0
81.0703125,-15.13671875,-10.7421875,-16.11328125,-49.31640625,-136.23046875,1.0
81.07421875,-13.671875,-12.6953125,-18.5546875,-62.01171875,-164.55078125,1.0
81.078125,-13.18359375,-17.08984375,-28.3203125,-64.453125,-117.67578125,1.0
81.08203125,-9.765625,-15.13671875,-24.4140625,-46.38671875,-53.22265625,1.0
81.0859375,-6.34765625,-16.6015625,-20.99609375,-25.390625,-44.43359375,1.0
81.08984375,-19.04296875,-22.94921875,-25.390625,-9.765625,-20.5078125,1.0
81.09375,-29.78515625,-20.01953125,-26.3671875,12.6953125,22.94921875,1.0
81.09765625,-31.73828125,-22.94921875,-34.1796875,15.625,54.19921875,1.0
81.1015625,-46.38671875,-26.85546875,-36.1328125,4.8828125,41.015625,1.0
81.10546875,-51.26953125,-26.3671875,-32.71484375,14.16015625,32.71484375,1.0
81.109375,-42.96875,-20.01953125,-22.4609375,42.48046875,-6.34765625,1.0
81.11328125,-38.0859375,-13.671875,-16.6015625,56.640625,-42.48046875,1.0
81.1171875,-26.85546875,-20.5078125,-25.390625,38.0859375,11.71875,1.0
81.12109375,-38.0859375,-27.34375,-35.15625,32.71484375,-9.765625,1.0
81.125,-44.43359375,-31.25,-32.2265625,25.390625,-40.52734375,1.0
81.12890625,-41.015625,-30.2734375,-24.90234375,6.8359375,-37.59765625,1.0
81.1328125,-47.36328125,-31.73828125,-29.78515625,-1.953125,-14.6484375,1.0
81.13671875,-48.33984375,-30.76171875,-33.69140625,2.44140625,71.2890625,1.0
81.140625,-54.6875,-34.1796875,-36.1328125,14.6484375,96.6796875,1.0
81.14453125,-48.828125,-42.48046875,-39.55078125,-3.90625,56.640625,1.0
81.1484375,-47.36328125,-46.38671875,-38.0859375,-8.30078125,-8.30078125,1.0
81.15234375,-55.6640625,-38.57421875,-38.0859375,28.3203125,-35.64453125,1.0
81.15625,-53.7109375,-30.76171875,-37.109375,39.0625,-59.08203125,1.0
81.16015625,-48.33984375,-33.69140625,-26.3671875,37.59765625,-42.96875,1.0
81.1640625,-30.2734375,-37.59765625,-22.4609375,39.0625,-80.56640625,1.0
81.16796875,-28.80859375,-37.59765625,-26.85546875,23.92578125,-102.05078125,1.0
81.171875,-28.3203125,-20.99609375,-16.6015625,25.390625,-54.19921875,1.0
81.17578125,-19.04296875,-20.5078125,-19.04296875,20.99609375,-82.51953125,1.0
81.1796875,-33.203125,-39.0625,-35.64453125,-21.484375,-69.82421875,1.0
81.18359375,-49.8046875,-37.109375,-32.2265625,-19.04296875,-28.80859375,1.0
81.1875,-37.109375,-25.87890625,-14.16015625,29.78515625,-42.48046875,1.0
81.19140625,-25.390625,-21.484375,-0.9765625,45.41015625,-57.6171875,1.0
81.1953125,-30.2734375,-25.87890625,-10.25390625,41.50390625,16.6015625,1.0
81.19921875,-37.59765625,-35.64453125,-28.3203125,23.4375,-20.99609375,1.0
81.203125,-34.1796875,-41.9921875,-43.9453125,-12.6953125,-97.16796875,1.0
81.20703125,-20.5078125,-35.64453125,-34.1796875,0.9765625,-138.18359375,1.0
81.2109375,-26.3671875,-38.0859375,-28.3203125,0.0,-166.50390625,1.0
81.21484375,-27.83203125,-37.109375,-40.52734375,-1.953125,-90.8203125,1.0
81.21875,-23.4375,-26.3671875,-31.25,28.80859375,-61.03515625,1.0
81.22265625,-35.64453125,-31.73828125,-29.78515625,48.33984375,-142.578125,1.0
81.2265625,-49.8046875,-47.8515625,-42.96875,61.03515625,-136.71875,1.0
81.23046875,-50.78125,-45.41015625,-32.71484375,96.6796875,-32.2265625,1.0
81.234375,-29.78515625,-35.15625,-30.2734375,153.3203125,-3.90625,1.0
81.23828125,-27.34375,-34.66796875,-44.43359375,176.7578125,-51.7578125,1.0
81.2421875,-31.73828125,-43.9453125,-50.78125,192.3828125,-201.171875,1.0
81.24609375,-28.80859375,-44.43359375,-44.921875,216.796875,-170.8984375,1.0
81.25,-34.66796875,-41.015625,-34.66796875,185.546875,6.34765625,1.0
81.25390625,-29.296875,-41.50390625,-33.69140625,121.58203125,9.765625,1.0
81.2578125,-27.83203125,-39.0625,-37.109375,87.890625,-29.78515625,1.0
81.26171875,-30.76171875,-33.203125,-33.69140625,78.125,17.08984375,1.0
81.265625,-22.4609375,-39.55078125,-37.59765625,70.3125,0.9765625,1.0
81.26953125,-43.9453125,-54.6875,-41.9921875,49.8046875,-29.296875,1.0
81.2734375,-38.0859375,-42.96875,-37.59765625,35.15625,-21.484375,1.0
81.27734375,-19.04296875,-26.3671875,-38.57421875,40.52734375,-22.94921875,1.0
81.28125,-20.01953125,-25.87890625,-44.43359375,57.12890625,80.078125,1.0
81.28515625,-30.2734375,-35.64453125,-49.8046875,58.59375,123.53515625,1.0
81.2890625,-41.015625,-45.41015625,-42.48046875,22.4609375,125.0,1.0
81.29296875,-34.66796875,-37.109375,-28.3203125,12.6953125,109.86328125,1.0
81.296875,-33.69140625,-33.69140625,-28.3203125,11.71875,35.15625,1.0
81.30078125,-43.45703125,-38.0859375,-34.1796875,19.53125,8.30078125,1.0
81.3046875,-33.203125,-38.0859375,-32.71484375,46.875,-76.171875,1.0
81.30859375,-12.20703125,-23.4375,-24.90234375,43.45703125,-130.859375,1.0
